t[s] h[m]  P[Pa]  ax[g] alfa[deg] beta[deg] pitch[deg] yaw[deg] rol[deg] 
0.000 -0.000 101325.00 0.985  NaN  NaN 80.000 0.000 0.000
0.001 -0.000 101325.00 0.985  NaN  NaN 80.000 0.000 0.000
0.004 -0.000 101325.00 0.985  NaN  NaN 80.000 0.000 0.000
0.010 -0.000 101325.00 0.985  NaN  NaN 80.000 0.000 0.000
0.016 -0.000 101325.00 0.986  NaN  NaN 80.000 0.000 0.000
0.017 -0.000 101325.00 1.014  NaN  NaN 80.000 0.000 0.000
0.018 0.000 101325.00 1.079  NaN  NaN 80.000 0.000 0.000
0.020 0.000 101325.00 1.199  NaN  NaN 80.000 0.000 0.000
0.023 0.000 101325.00 1.325  NaN  NaN 80.000 0.000 0.000
0.025 0.000 101325.00 1.579  NaN  NaN 80.000 0.000 0.000
0.031 0.000 101325.00 1.995  NaN  NaN 80.000 0.000 0.000
0.042 0.002 101324.98 2.495  NaN  NaN 80.000 0.000 0.000
0.054 0.005 101324.94 3.163  NaN  NaN 80.000 0.000 0.000
0.065 0.011 101324.87 4.165  NaN  NaN 80.000 0.000 0.000
0.087 0.034 101324.60 5.168  NaN  NaN 80.000 0.000 0.000
0.110 0.077 101324.07 6.481  NaN  NaN 80.000 0.000 0.000
0.132 0.148 101323.23 7.324  NaN  NaN 80.000 0.000 0.000
0.143 0.190 101322.72 7.766  NaN  NaN 80.000 0.000 0.000
0.153 0.239 101322.13 7.791  NaN  NaN 80.000 0.000 0.000
0.163 0.294 101321.46 7.860  NaN  NaN 80.000 0.000 0.000
0.183 0.426 101319.88 7.968  NaN  NaN 80.000 0.000 0.000
0.224 0.773 101315.71 8.185  NaN  NaN 80.000 0.000 0.000
0.305 1.809 101303.27 8.444  NaN  NaN 80.000 0.000 0.000
0.386 3.320 101285.12 8.697  NaN  NaN 80.000 0.000 0.000
0.427 4.260 101273.83 8.891  NaN  NaN 80.000 0.000 0.000
0.447 4.778 101267.62 8.973  NaN  NaN 80.000 0.000 0.000
0.457 5.048 101264.37 9.016  NaN  NaN 80.000 0.000 0.000
0.462 5.187 101262.71 9.041  NaN  NaN 80.000 0.000 0.000
0.467 5.327 101261.02 9.053 -20.869 12.360 80.000 -0.000 -0.000
0.470 5.391 101260.26 9.065 -20.719 12.290 80.001 -0.000 -0.000
0.472 5.455 101259.49 9.073 -20.570 12.221 80.002 -0.000 -0.000
0.474 5.519 101258.71 9.084 -20.423 12.153 80.004 -0.000 -0.000
0.479 5.650 101257.15 9.103 -20.131 12.019 80.008 -0.000 -0.001
0.488 5.915 101253.96 9.126 -19.559 11.757 80.022 -0.000 -0.002
0.497 6.188 101250.69 9.171 -19.001 11.505 80.045 -0.000 -0.004
0.515 6.751 101243.92 9.214 -17.926 11.026 80.112 -0.001 -0.010
0.534 7.342 101236.84 9.270 -16.899 10.581 80.214 -0.001 -0.018
0.552 7.958 101229.43 9.323 -15.901 10.165 80.357 -0.002 -0.029
0.568 8.531 101222.56 9.374 -15.033 9.816 80.522 -0.003 -0.040
0.584 9.125 101215.43 9.419 -14.179 9.488 80.723 -0.003 -0.053
0.601 9.740 101208.05 9.463 -13.336 9.178 80.961 -0.004 -0.067
0.617 10.377 101200.40 9.502 -12.502 8.884 81.235 -0.005 -0.084
0.633 11.036 101192.50 9.530 -11.674 8.607 81.549 -0.006 -0.101
0.650 11.717 101184.32 9.541 -10.840 8.344 81.908 -0.006 -0.120
0.664 12.313 101177.16 9.540 -10.128 8.131 82.251 -0.007 -0.136
0.677 12.926 101169.81 9.529 -9.410 7.927 82.629 -0.007 -0.153
0.705 14.200 101154.52 9.510 -7.962 7.544 83.486 -0.006 -0.187
0.730 15.403 101140.10 9.468 -6.635 7.225 84.375 -0.005 -0.218
0.753 16.530 101126.58 9.412 -5.427 6.957 85.264 -0.002 -0.247
0.775 17.701 101112.53 9.346 -4.219 6.704 86.228 0.001 -0.275
0.797 18.916 101097.97 9.269 -3.010 6.465 87.254 0.006 -0.304
0.820 20.174 101082.88 9.188 -1.817 6.239 88.329 0.013 -0.332
0.842 21.476 101067.27 9.108 -0.646 6.023 89.440 0.021 -0.359
0.865 22.823 101051.12 9.056 0.492 5.818 90.566 0.032 -0.385
0.875 23.434 101043.80 9.016 0.976 5.731 91.064 0.037 -0.396
0.885 24.053 101036.38 8.992 1.445 5.645 91.556 0.042 -0.408
0.895 24.682 101028.84 8.955 1.898 5.561 92.040 0.048 -0.419
0.915 25.965 101013.47 8.934 2.750 5.398 92.981 0.061 -0.441
0.934 27.283 100997.68 8.931 3.520 5.241 93.871 0.075 -0.462
0.954 28.636 100981.47 8.964 4.198 5.091 94.697 0.091 -0.483
0.974 30.023 100964.84 9.035 4.767 4.947 95.442 0.107 -0.502
0.994 31.446 100947.80 9.142 5.224 4.808 96.092 0.125 -0.520
1.014 32.903 100930.35 9.376 5.560 4.674 96.635 0.144 -0.536
1.054 35.922 100894.21 9.669 5.848 4.421 97.358 0.186 -0.565
1.094 39.078 100856.43 10.090 5.612 4.183 97.559 0.232 -0.588
1.133 42.373 100817.00 10.451 4.879 3.959 97.228 0.283 -0.606
1.173 45.806 100775.94 10.605 3.729 3.746 96.413 0.340 -0.619
1.193 47.573 100754.80 10.599 3.047 3.644 95.853 0.370 -0.625
1.213 49.375 100733.26 10.540 2.312 3.543 95.217 0.403 -0.630
1.233 51.210 100711.32 10.436 1.548 3.445 94.526 0.437 -0.635
1.253 53.079 100688.98 10.295 0.781 3.348 93.802 0.473 -0.641
1.273 54.980 100666.25 10.127 0.027 3.252 93.069 0.512 -0.646
1.293 56.915 100643.14 10.000 -0.692 3.158 92.343 0.552 -0.651
1.301 57.781 100632.80 9.874 -1.000 3.116 92.026 0.571 -0.653
1.310 58.653 100622.38 9.794 -1.300 3.074 91.713 0.591 -0.655
1.319 59.531 100611.88 9.712 -1.590 3.032 91.407 0.611 -0.657
1.328 60.416 100601.32 9.589 -1.867 2.990 91.108 0.632 -0.659
1.345 62.204 100579.96 9.467 -2.378 2.904 90.545 0.677 -0.663
1.363 64.017 100558.32 9.317 -2.811 2.818 90.042 0.725 -0.667
1.379 65.669 100538.59 9.173 -3.128 2.740 89.656 0.770 -0.671
1.395 67.342 100518.63 8.974 -3.363 2.660 89.342 0.819 -0.674
1.426 70.744 100478.02 8.772 -3.569 2.498 88.972 0.925 -0.681
1.458 74.223 100436.52 8.513 -3.398 2.329 88.975 1.043 -0.688
1.487 77.418 100398.42 8.248 -2.929 2.171 89.306 1.160 -0.693
1.512 80.343 100363.54 7.958 -2.281 2.023 89.851 1.276 -0.698
1.538 83.315 100328.12 7.649 -1.468 1.868 90.590 1.402 -0.703
1.564 86.333 100292.16 7.416 -0.560 1.707 91.462 1.538 -0.708
1.575 87.706 100275.80 7.185 -0.136 1.632 91.881 1.603 -0.710
1.587 89.088 100259.34 7.088 0.287 1.555 92.305 1.670 -0.712
1.593 89.782 100251.08 7.004 0.493 1.516 92.515 1.704 -0.713
1.598 90.478 100242.78 6.954 0.695 1.478 92.722 1.738 -0.714
1.604 91.177 100234.46 6.891 0.891 1.440 92.925 1.772 -0.715
1.616 92.580 100217.75 6.841 1.262 1.363 93.315 1.841 -0.717
1.627 93.993 100200.94 6.790 1.600 1.286 93.678 1.911 -0.719
1.639 95.414 100184.02 6.763 1.901 1.209 94.009 1.981 -0.721
1.650 96.843 100167.01 6.772 2.158 1.132 94.302 2.052 -0.723
1.662 98.280 100149.90 6.806 2.365 1.054 94.550 2.124 -0.725
1.673 99.726 100132.70 6.858 2.521 0.977 94.749 2.197 -0.727
1.685 101.180 100115.40 6.926 2.622 0.900 94.896 2.270 -0.729
1.696 102.642 100098.01 7.038 2.668 0.822 94.989 2.344 -0.730
1.720 105.590 100062.94 7.146 2.595 0.666 95.012 2.494 -0.734
1.743 108.570 100027.51 7.258 2.317 0.510 94.825 2.647 -0.738
1.766 111.581 99991.73 7.296 1.866 0.353 94.453 2.802 -0.741
1.789 114.622 99955.59 7.256 1.300 0.194 93.943 2.961 -0.744
1.810 117.384 99922.77 7.153 0.724 0.051 93.407 3.106 -0.747
1.828 119.891 99893.00 7.008 0.197 -0.074 92.895 3.235 -0.750
1.847 122.416 99863.01 6.894 -0.318 -0.190 92.381 3.359 -0.752
1.856 123.686 99847.93 6.774 -0.569 -0.246 92.128 3.420 -0.754
1.866 124.961 99832.80 6.690 -0.811 -0.302 91.879 3.479 -0.755
1.875 126.240 99817.62 6.604 -1.042 -0.356 91.639 3.538 -0.756
1.884 127.524 99802.39 6.516 -1.258 -0.410 91.411 3.596 -0.757
1.894 128.812 99787.10 6.428 -1.455 -0.463 91.198 3.654 -0.758
1.903 130.105 99771.76 6.342 -1.629 -0.515 91.006 3.711 -0.760
1.912 131.402 99756.37 6.221 -1.780 -0.566 90.836 3.767 -0.761
1.931 134.010 99725.45 6.107 -1.998 -0.665 90.574 3.877 -0.763
1.950 136.635 99694.32 5.958 -2.092 -0.761 90.431 3.984 -0.765
1.969 139.277 99662.99 5.817 -2.045 -0.853 90.424 4.088 -0.768
1.985 141.631 99635.09 5.673 -1.891 -0.931 90.533 4.178 -0.770
2.002 143.999 99607.04 5.536 -1.646 -1.006 90.741 4.264 -0.771
2.017 146.140 99581.67 5.389 -1.353 -1.071 91.005 4.340 -0.773
2.032 148.292 99556.18 5.244 -1.005 -1.133 91.331 4.413 -0.775
2.046 150.454 99530.58 5.099 -0.618 -1.193 91.703 4.484 -0.776
2.061 152.626 99504.86 4.959 -0.207 -1.249 92.107 4.552 -0.778
2.076 154.808 99479.04 4.871 0.212 -1.303 92.524 4.617 -0.780
2.083 155.761 99467.76 4.805 0.388 -1.325 92.704 4.644 -0.780
2.089 156.716 99456.46 4.774 0.558 -1.346 92.878 4.670 -0.781
2.096 157.672 99445.15 4.741 0.720 -1.366 93.047 4.695 -0.782
2.109 159.590 99422.45 4.725 1.019 -1.402 93.362 4.742 -0.783
2.122 161.515 99399.68 4.727 1.274 -1.435 93.637 4.785 -0.784
2.135 163.448 99376.82 4.755 1.476 -1.463 93.865 4.824 -0.786
2.148 165.387 99353.90 4.804 1.620 -1.488 94.038 4.859 -0.787
2.161 167.332 99330.89 4.906 1.703 -1.509 94.152 4.890 -0.788
2.187 171.244 99284.66 5.007 1.683 -1.540 94.197 4.942 -0.791
2.213 175.181 99238.15 5.105 1.434 -1.556 94.011 4.979 -0.793
2.239 179.143 99191.35 5.120 1.004 -1.558 93.634 5.002 -0.795
2.265 183.130 99144.29 5.051 0.475 -1.546 93.137 5.010 -0.798
2.288 186.738 99101.70 4.963 -0.029 -1.524 92.644 5.006 -0.800
2.300 188.550 99080.33 4.860 -0.282 -1.509 92.392 4.999 -0.801
2.311 190.366 99058.91 4.779 -0.526 -1.491 92.144 4.990 -0.802
2.323 192.186 99037.44 4.694 -0.756 -1.470 91.908 4.978 -0.803
2.335 194.011 99015.92 4.605 -0.963 -1.446 91.690 4.962 -0.804
2.346 195.841 98994.35 4.470 -1.143 -1.420 91.497 4.943 -0.805
2.370 199.513 98951.07 4.335 -1.396 -1.356 91.214 4.896 -0.807
2.393 203.202 98907.60 4.167 -1.470 -1.281 91.097 4.836 -0.809
2.413 206.354 98870.48 3.974 -1.386 -1.205 91.145 4.773 -0.810
2.433 209.517 98833.23 3.767 -1.174 -1.120 91.325 4.699 -0.812
2.453 212.691 98795.87 3.563 -0.857 -1.024 91.618 4.615 -0.813
2.471 215.556 98762.15 3.360 -0.504 -0.929 91.957 4.529 -0.814
2.489 218.430 98728.34 3.177 -0.113 -0.824 92.341 4.434 -0.816
2.506 221.311 98694.45 3.060 0.287 -0.710 92.740 4.329 -0.817
2.514 222.552 98679.86 2.969 0.449 -0.660 92.906 4.282 -0.818
2.522 223.794 98665.25 2.927 0.601 -0.609 93.064 4.235 -0.818
2.530 225.037 98650.64 2.881 0.742 -0.557 93.212 4.186 -0.819
2.545 227.528 98621.36 2.855 0.982 -0.452 93.469 4.087 -0.820
2.560 230.023 98592.04 2.840 1.155 -0.344 93.665 3.985 -0.821
2.576 232.523 98562.67 2.849 1.256 -0.233 93.791 3.880 -0.822
2.591 235.027 98533.26 2.867 1.276 -0.120 93.840 3.772 -0.823
2.606 237.535 98503.81 2.872 1.222 -0.005 93.812 3.663 -0.824
2.622 240.047 98474.32 2.859 1.101 0.104 93.715 3.556 -0.825
2.637 242.562 98444.79 2.821 0.920 0.205 93.558 3.456 -0.826
2.653 245.081 98415.23 2.753 0.696 0.298 93.352 3.365 -0.827
2.668 247.604 98385.64 2.658 0.444 0.382 93.113 3.282 -0.828
2.683 250.129 98356.03 2.539 0.177 0.458 92.855 3.206 -0.829
2.699 252.657 98326.39 2.416 -0.089 0.527 92.592 3.138 -0.829
2.713 254.934 98299.69 2.294 -0.326 0.585 92.357 3.080 -0.830
2.725 256.924 98276.36 2.168 -0.520 0.633 92.159 3.033 -0.831
2.737 258.916 98253.02 1.984 -0.697 0.678 91.976 2.988 -0.832
2.761 262.903 98206.31 1.795 -0.972 0.760 91.685 2.908 -0.833
2.785 266.894 98159.57 1.554 -1.106 0.830 91.526 2.839 -0.834
2.807 270.488 98117.50 1.312 -1.090 0.883 91.517 2.787 -0.836
2.829 274.084 98075.42 1.079 -0.944 0.925 91.640 2.745 -0.837
2.850 277.681 98033.34 0.845 -0.684 0.958 91.880 2.714 -0.838
2.872 281.278 97991.28 0.616 -0.343 0.979 92.209 2.694 -0.839
2.894 284.874 97949.24 0.464 0.042 0.989 92.585 2.685 -0.840
2.904 286.492 97930.33 0.343 0.210 0.990 92.755 2.685 -0.841
2.914 288.110 97911.43 0.296 0.368 0.988 92.918 2.688 -0.841
2.923 289.727 97892.53 0.282 0.513 0.984 93.069 2.692 -0.842
2.943 292.960 97854.76 0.292 0.752 0.970 93.322 2.708 -0.843
2.963 296.192 97817.03 0.326 0.904 0.946 93.495 2.734 -0.844
2.982 299.422 97779.33 0.376 0.961 0.914 93.575 2.767 -0.845
3.002 302.649 97741.66 0.425 0.922 0.874 93.560 2.810 -0.846
3.021 305.874 97704.04 0.457 0.797 0.825 93.458 2.860 -0.847
3.041 309.096 97666.46 0.458 0.602 0.769 93.283 2.918 -0.847
3.060 312.316 97628.93 0.427 0.362 0.705 93.057 2.984 -0.848
3.080 315.532 97591.44 0.366 0.099 0.634 92.805 3.057 -0.849
3.100 318.746 97553.99 0.308 -0.158 0.557 92.550 3.138 -0.850
3.109 320.351 97535.29 0.243 -0.283 0.513 92.426 3.182 -0.850
3.119 321.956 97516.60 0.193 -0.400 0.467 92.306 3.229 -0.851
3.129 323.559 97497.93 0.141 -0.509 0.417 92.195 3.280 -0.851
3.139 325.162 97479.27 0.057 -0.606 0.365 92.093 3.334 -0.852
3.158 328.365 97441.99 -0.025 -0.756 0.249 91.934 3.452 -0.853
3.178 331.564 97404.76 -0.117 -0.832 0.120 91.845 3.583 -0.853
3.198 334.758 97367.60 -0.198 -0.829 -0.022 91.835 3.727 -0.854
3.217 337.949 97330.49 -0.275 -0.744 -0.162 91.906 3.874 -0.855
3.235 340.817 97297.14 -0.347 -0.606 -0.285 92.034 4.003 -0.856
3.252 343.682 97263.85 -0.410 -0.420 -0.405 92.212 4.127 -0.856
3.270 346.543 97230.60 -0.464 -0.200 -0.520 92.428 4.248 -0.857
3.288 349.400 97197.40 -0.494 0.038 -0.630 92.663 4.363 -0.858
3.297 350.828 97180.82 -0.505 0.153 -0.682 92.780 4.417 -0.858
3.305 352.255 97164.26 -0.504 0.262 -0.730 92.893 4.469 -0.858
3.314 353.680 97147.70 -0.489 0.364 -0.777 92.999 4.518 -0.859
3.332 356.529 97114.63 -0.462 0.537 -0.861 93.182 4.608 -0.859
3.349 359.374 97081.61 -0.413 0.661 -0.935 93.319 4.687 -0.860
3.367 362.215 97048.65 -0.353 0.729 -0.999 93.402 4.757 -0.861
3.385 365.053 97015.73 -0.260 0.739 -1.053 93.428 4.817 -0.861
3.420 370.716 96950.07 -0.189 0.597 -1.134 93.320 4.909 -0.863
3.455 376.364 96884.62 -0.142 0.297 -1.180 93.049 4.966 -0.864
3.490 381.996 96819.39 -0.141 -0.061 -1.193 92.702 4.990 -0.865
3.506 384.525 96790.11 -0.158 -0.223 -1.189 92.542 4.991 -0.866
3.522 387.051 96760.87 -0.175 -0.372 -1.178 92.392 4.985 -0.866
3.538 389.574 96731.68 -0.209 -0.499 -1.161 92.261 4.973 -0.867
3.570 394.609 96673.44 -0.250 -0.659 -1.108 92.091 4.929 -0.868
3.602 399.632 96615.37 -0.311 -0.662 -1.027 92.072 4.859 -0.869
3.633 404.641 96557.48 -0.370 -0.509 -0.918 92.208 4.759 -0.870
3.662 409.138 96505.53 -0.418 -0.266 -0.794 92.442 4.645 -0.871
3.690 413.625 96453.73 -0.437 0.030 -0.646 92.730 4.508 -0.871
3.703 415.640 96430.47 -0.436 0.158 -0.575 92.862 4.441 -0.872
3.716 417.654 96407.23 -0.423 0.276 -0.501 92.984 4.371 -0.872
3.729 419.665 96384.03 -0.389 0.379 -0.425 93.093 4.300 -0.873
3.755 423.681 96337.70 -0.343 0.529 -0.266 93.257 4.150 -0.873
3.780 427.689 96291.50 -0.273 0.589 -0.099 93.336 3.991 -0.874
3.806 431.687 96245.41 -0.223 0.559 0.074 93.325 3.830 -0.875
3.818 433.484 96224.71 -0.184 0.519 0.145 93.293 3.760 -0.875
3.829 435.279 96204.03 -0.158 0.464 0.213 93.245 3.695 -0.876
3.852 438.864 96162.75 -0.144 0.319 0.335 93.115 3.576 -0.876
3.873 442.084 96125.67 -0.138 0.163 0.431 92.969 3.484 -0.877
3.894 445.299 96088.67 -0.145 0.000 0.514 92.810 3.403 -0.877
3.915 448.508 96051.75 -0.159 -0.158 0.586 92.654 3.334 -0.878
3.936 451.711 96014.90 -0.181 -0.303 0.651 92.511 3.273 -0.879
3.954 454.590 95981.80 -0.210 -0.410 0.702 92.402 3.225 -0.879
3.973 457.464 95948.76 -0.242 -0.485 0.747 92.323 3.184 -0.880
3.992 460.333 95915.78 -0.276 -0.522 0.784 92.280 3.149 -0.880
4.011 463.198 95882.86 -0.312 -0.520 0.815 92.277 3.121 -0.881
4.029 466.059 95850.01 -0.364 -0.477 0.839 92.314 3.101 -0.881
4.067 471.766 95784.47 -0.409 -0.286 0.864 92.494 3.082 -0.882
4.104 477.456 95719.18 -0.448 -0.005 0.859 92.770 3.094 -0.883
4.142 483.128 95654.13 -0.452 0.284 0.821 93.058 3.137 -0.884
4.160 485.957 95621.70 -0.422 0.392 0.792 93.176 3.170 -0.885
4.179 488.782 95589.32 -0.389 0.469 0.756 93.262 3.209 -0.885
4.198 491.602 95557.01 -0.349 0.506 0.714 93.311 3.254 -0.886
4.217 494.418 95524.76 -0.293 0.503 0.666 93.321 3.306 -0.886
4.254 500.036 95460.43 -0.251 0.393 0.553 93.237 3.426 -0.887
4.292 505.636 95396.34 -0.223 0.183 0.417 93.049 3.567 -0.888
4.329 511.219 95332.49 -0.223 -0.059 0.262 92.817 3.733 -0.889
4.348 514.003 95300.65 -0.241 -0.178 0.170 92.701 3.827 -0.889
4.367 516.783 95268.88 -0.263 -0.285 0.069 92.594 3.932 -0.890
4.385 519.559 95237.16 -0.288 -0.372 -0.039 92.505 4.043 -0.890
4.404 522.330 95205.50 -0.314 -0.433 -0.144 92.441 4.155 -0.891
4.423 525.097 95173.90 -0.340 -0.463 -0.247 92.407 4.264 -0.891
4.442 527.860 95142.36 -0.367 -0.461 -0.345 92.406 4.368 -0.892
4.460 530.618 95110.88 -0.393 -0.425 -0.438 92.438 4.468 -0.892
4.479 533.371 95079.46 -0.428 -0.358 -0.526 92.501 4.563 -0.893
4.516 538.866 95016.78 -0.451 -0.153 -0.690 92.700 4.739 -0.893
4.554 544.342 94954.35 -0.459 0.099 -0.834 92.948 4.893 -0.894
4.573 547.074 94923.22 -0.439 0.211 -0.893 93.066 4.960 -0.895
4.591 549.801 94892.15 -0.412 0.304 -0.944 93.167 5.017 -0.895
4.610 552.524 94861.13 -0.379 0.372 -0.986 93.244 5.065 -0.895
4.629 555.242 94830.18 -0.322 0.411 -1.019 93.293 5.105 -0.896
4.666 560.666 94768.44 -0.268 0.401 -1.063 93.304 5.162 -0.897
4.704 566.072 94706.94 -0.209 0.286 -1.077 93.211 5.189 -0.898
4.741 571.460 94645.67 -0.177 0.108 -1.062 93.051 5.187 -0.898
4.779 576.831 94584.63 -0.164 -0.082 -1.021 92.869 5.159 -0.899
4.816 582.185 94523.82 -0.169 -0.260 -0.950 92.703 5.102 -0.900
4.850 586.988 94469.29 -0.190 -0.361 -0.860 92.600 5.024 -0.901
4.884 591.777 94414.94 -0.217 -0.386 -0.744 92.570 4.920 -0.901
4.917 596.552 94360.77 -0.244 -0.331 -0.602 92.621 4.789 -0.902
4.951 601.314 94306.79 -0.268 -0.205 -0.431 92.744 4.631 -0.903
4.985 606.061 94253.00 -0.284 -0.035 -0.231 92.914 4.443 -0.903
5.019 610.794 94199.39 -0.287 0.145 -0.001 93.097 4.232 -0.904
5.036 613.155 94172.65 -0.280 0.221 0.109 93.180 4.126 -0.904
5.052 615.513 94145.96 -0.270 0.285 0.211 93.250 4.027 -0.905
5.069 617.867 94119.32 -0.257 0.330 0.308 93.303 3.935 -0.905
5.086 620.218 94092.72 -0.241 0.357 0.394 93.338 3.851 -0.905
5.103 622.565 94066.16 -0.216 0.364 0.475 93.354 3.774 -0.906
5.137 627.249 94013.20 -0.193 0.325 0.615 93.333 3.641 -0.906
5.170 631.919 93960.41 -0.172 0.226 0.729 93.250 3.535 -0.907
5.204 636.574 93907.80 -0.165 0.091 0.818 93.129 3.454 -0.907
5.238 641.216 93855.38 -0.168 -0.051 0.883 92.995 3.395 -0.908
5.272 645.844 93803.14 -0.180 -0.189 0.932 92.866 3.356 -0.909
5.302 649.998 93756.27 -0.204 -0.281 0.959 92.775 3.336 -0.909
5.332 654.140 93709.56 -0.233 -0.330 0.971 92.725 3.331 -0.910
5.363 658.271 93662.98 -0.264 -0.328 0.967 92.725 3.342 -0.910
5.393 662.391 93616.55 -0.306 -0.275 0.946 92.777 3.370 -0.911
5.454 670.596 93524.13 -0.332 -0.056 0.853 92.993 3.479 -0.912
5.508 677.943 93441.44 -0.342 0.181 0.706 93.231 3.635 -0.913
5.536 681.603 93400.28 -0.323 0.265 0.618 93.327 3.730 -0.913
5.563 685.254 93359.22 -0.300 0.314 0.521 93.387 3.833 -0.913
5.590 688.896 93318.29 -0.276 0.322 0.417 93.409 3.944 -0.914
5.618 692.529 93277.47 -0.253 0.292 0.304 93.391 4.063 -0.914
5.645 696.152 93236.76 -0.234 0.228 0.184 93.341 4.190 -0.915
5.700 703.373 93155.70 -0.227 0.044 -0.074 93.182 4.450 -0.916
5.720 706.030 93125.89 -0.221 -0.029 -0.157 93.114 4.544 -0.916
5.740 708.682 93096.14 -0.222 -0.101 -0.238 93.047 4.632 -0.916
5.760 711.329 93066.45 -0.227 -0.166 -0.313 92.984 4.716 -0.917
5.780 713.972 93036.82 -0.234 -0.222 -0.385 92.931 4.795 -0.917
5.801 716.609 93007.25 -0.250 -0.263 -0.452 92.890 4.870 -0.917
5.841 721.869 92948.31 -0.268 -0.295 -0.572 92.860 5.007 -0.918
5.881 727.110 92889.62 -0.290 -0.254 -0.674 92.901 5.124 -0.918
5.922 732.332 92831.17 -0.306 -0.149 -0.756 93.007 5.222 -0.919
5.962 737.533 92772.97 -0.311 -0.007 -0.817 93.154 5.300 -0.920
6.002 742.716 92715.02 -0.294 0.140 -0.857 93.307 5.355 -0.920
6.043 747.879 92657.31 -0.264 0.237 -0.869 93.423 5.385 -0.921
6.079 752.509 92605.59 -0.227 0.281 -0.861 93.476 5.390 -0.921
6.115 757.123 92554.06 -0.188 0.263 -0.832 93.476 5.376 -0.922
6.152 761.722 92502.73 -0.159 0.197 -0.784 93.427 5.344 -0.922
6.188 766.305 92451.60 -0.140 0.100 -0.720 93.344 5.294 -0.923
6.224 770.872 92400.67 -0.127 -0.009 -0.639 93.245 5.227 -0.923
6.261 775.424 92349.94 -0.124 -0.121 -0.533 93.145 5.139 -0.924
6.297 779.960 92299.40 -0.131 -0.205 -0.408 93.064 5.027 -0.924
6.333 784.481 92249.05 -0.141 -0.254 -0.257 93.018 4.891 -0.925
6.370 788.986 92198.90 -0.158 -0.258 -0.081 93.017 4.731 -0.925
6.406 793.475 92148.95 -0.175 -0.214 0.115 93.063 4.555 -0.925
6.424 795.714 92124.05 -0.195 -0.177 0.208 93.102 4.466 -0.926
6.442 797.949 92099.19 -0.205 -0.131 0.301 93.150 4.379 -0.926
6.460 800.181 92074.38 -0.214 -0.079 0.390 93.206 4.296 -0.926
6.479 802.408 92049.62 -0.222 -0.023 0.476 93.266 4.215 -0.926
6.515 806.851 92000.25 -0.223 0.091 0.640 93.387 4.064 -0.927
6.548 810.836 91955.98 -0.217 0.171 0.765 93.481 3.946 -0.927
6.577 814.413 91916.27 -0.205 0.222 0.865 93.541 3.857 -0.928
6.606 817.979 91876.69 -0.191 0.243 0.949 93.575 3.783 -0.928
6.636 821.535 91837.24 -0.176 0.235 1.019 93.581 3.722 -0.928
6.665 825.080 91797.91 -0.163 0.202 1.075 93.561 3.675 -0.929
6.695 828.616 91758.70 -0.153 0.148 1.118 93.519 3.642 -0.929
6.753 835.657 91680.67 -0.153 0.009 1.169 93.404 3.610 -0.930
6.812 842.657 91603.15 -0.164 -0.121 1.175 93.291 3.625 -0.930
6.871 849.618 91526.11 -0.187 -0.206 1.133 93.224 3.686 -0.931
6.930 856.538 91449.58 -0.217 -0.202 1.042 93.234 3.798 -0.932
6.989 863.418 91373.54 -0.244 -0.112 0.899 93.329 3.961 -0.932
7.048 870.258 91297.99 -0.255 0.020 0.701 93.472 4.174 -0.933
7.106 877.058 91222.93 -0.252 0.126 0.487 93.601 4.417 -0.933
7.159 883.144 91155.80 -0.240 0.184 0.256 93.671 4.656 -0.934
7.207 888.594 91095.72 -0.220 0.174 0.047 93.684 4.883 -0.934
7.255 894.018 91035.96 -0.203 0.121 -0.155 93.652 5.104 -0.935
7.302 899.416 90976.52 -0.191 0.044 -0.314 93.592 5.293 -0.935
7.326 902.105 90946.92 -0.182 0.001 -0.383 93.556 5.373 -0.936
7.350 904.787 90917.40 -0.180 -0.042 -0.443 93.521 5.446 -0.936
7.374 907.463 90887.95 -0.179 -0.082 -0.500 93.488 5.513 -0.936
7.398 910.133 90858.59 -0.180 -0.116 -0.550 93.460 5.576 -0.936
7.421 912.796 90829.31 -0.183 -0.143 -0.595 93.438 5.634 -0.937
7.445 915.452 90800.10 -0.189 -0.161 -0.636 93.425 5.687 -0.937
7.493 920.746 90741.93 -0.195 -0.167 -0.703 93.429 5.777 -0.937
7.541 926.014 90684.06 -0.201 -0.132 -0.748 93.474 5.846 -0.938
7.588 931.256 90626.52 -0.204 -0.063 -0.772 93.554 5.894 -0.938
7.636 936.472 90569.28 -0.196 0.022 -0.773 93.650 5.918 -0.939
7.684 941.663 90512.36 -0.182 0.090 -0.748 93.738 5.919 -0.939
7.731 946.827 90455.75 -0.164 0.137 -0.701 93.801 5.896 -0.939
7.779 951.966 90399.45 -0.143 0.147 -0.631 93.830 5.851 -0.940
7.827 957.079 90343.46 -0.125 0.122 -0.541 93.827 5.786 -0.940
7.874 962.167 90287.78 -0.114 0.072 -0.431 93.796 5.702 -0.941
7.922 967.229 90232.40 -0.106 0.009 -0.303 93.752 5.600 -0.941
8.017 977.276 90122.58 -0.109 -0.098 0.001 93.680 5.352 -0.942
8.103 986.230 90024.78 -0.128 -0.135 0.285 93.675 5.112 -0.943
8.189 995.102 89927.98 -0.147 -0.075 0.513 93.756 4.912 -0.943
8.266 1003.017 89841.69 -0.156 0.025 0.687 93.876 4.787 -0.944
8.335 1010.083 89764.71 -0.154 0.086 0.778 93.971 4.723 -0.944
8.405 1017.095 89688.37 -0.146 0.117 0.831 94.026 4.707 -0.945
8.474 1024.053 89612.66 -0.137 0.092 0.837 94.033 4.733 -0.945
8.544 1030.958 89537.59 -0.134 0.031 0.804 94.004 4.800 -0.946
8.613 1037.809 89463.16 -0.138 -0.036 0.737 93.964 4.905 -0.946
8.683 1044.607 89389.35 -0.149 -0.094 0.617 93.937 5.057 -0.947
8.752 1051.352 89316.17 -0.166 -0.107 0.455 93.943 5.261 -0.947
8.822 1058.043 89243.62 -0.185 -0.085 0.231 93.992 5.519 -0.948
8.891 1064.681 89171.69 -0.196 -0.029 -0.047 94.074 5.825 -0.948
8.961 1071.266 89100.38 -0.192 0.044 -0.298 94.171 6.132 -0.949
9.023 1077.148 89036.73 -0.179 0.083 -0.490 94.242 6.368 -0.949
9.086 1082.986 88973.58 -0.163 0.100 -0.649 94.286 6.559 -0.950
9.142 1088.204 88917.18 -0.145 0.086 -0.748 94.301 6.697 -0.950
9.198 1093.387 88861.17 -0.132 0.052 -0.818 94.295 6.805 -0.950
9.255 1098.536 88805.57 -0.122 0.008 -0.859 94.278 6.885 -0.951
9.311 1103.650 88750.37 -0.117 -0.036 -0.873 94.260 6.938 -0.951
9.367 1108.729 88695.57 -0.116 -0.072 -0.867 94.249 6.970 -0.952
9.424 1113.774 88641.17 -0.116 -0.092 -0.837 94.253 6.980 -0.952
9.480 1118.785 88587.17 -0.115 -0.091 -0.784 94.278 6.968 -0.952
9.536 1123.761 88533.57 -0.114 -0.070 -0.709 94.324 6.933 -0.953
9.592 1128.703 88480.36 -0.109 -0.033 -0.609 94.386 6.875 -0.953
9.705 1138.483 88375.13 -0.100 0.056 -0.334 94.522 6.689 -0.954
9.806 1147.168 88281.77 -0.088 0.080 -0.042 94.610 6.473 -0.954
9.897 1154.890 88198.83 -0.083 0.068 0.226 94.643 6.281 -0.955
9.989 1162.523 88116.92 -0.083 0.018 0.417 94.644 6.139 -0.955
10.071 1169.315 88044.07 -0.086 -0.038 0.562 94.636 6.063 -0.956
10.145 1175.367 87979.20 -0.093 -0.073 0.653 94.640 6.027 -0.956
10.218 1181.361 87915.00 -0.101 -0.086 0.714 94.666 6.021 -0.956
10.292 1187.296 87851.46 -0.110 -0.072 0.745 94.719 6.047 -0.957
10.366 1193.174 87788.57 -0.117 -0.035 0.745 94.797 6.106 -0.957
10.440 1198.993 87726.35 -0.120 0.014 0.711 94.886 6.197 -0.958
10.514 1204.754 87664.78 -0.119 0.048 0.658 94.970 6.313 -0.958
10.588 1210.458 87603.86 -0.115 0.073 0.577 95.035 6.450 -0.958
10.661 1216.103 87543.59 -0.110 0.064 0.485 95.079 6.608 -0.959
10.735 1221.691 87483.98 -0.108 0.036 0.374 95.102 6.783 -0.959
10.809 1227.221 87425.01 -0.108 0.000 0.247 95.115 6.975 -0.959
10.883 1232.694 87366.68 -0.114 -0.038 0.107 95.127 7.186 -0.960
10.957 1238.110 87309.00 -0.119 -0.065 -0.074 95.149 7.423 -0.960
11.023 1242.934 87257.63 -0.123 -0.076 -0.206 95.184 7.640 -0.960
11.083 1247.237 87211.85 -0.125 -0.071 -0.337 95.228 7.823 -0.961
11.143 1251.501 87166.49 -0.126 -0.055 -0.449 95.286 7.999 -0.961
11.203 1255.728 87121.54 -0.126 -0.029 -0.550 95.355 8.166 -0.961
11.263 1259.918 87077.02 -0.122 0.003 -0.643 95.429 8.321 -0.961
11.322 1264.070 87032.91 -0.116 0.027 -0.710 95.501 8.458 -0.962
11.382 1268.184 86989.21 -0.109 0.047 -0.762 95.566 8.573 -0.962
11.442 1272.261 86945.94 -0.101 0.055 -0.791 95.622 8.670 -0.962
11.502 1276.301 86903.07 -0.089 0.052 -0.801 95.668 8.749 -0.963
11.622 1284.268 86818.58 -0.080 0.020 -0.767 95.738 8.858 -0.963
11.741 1292.086 86735.74 -0.072 -0.028 -0.668 95.794 8.907 -0.964
11.861 1299.755 86654.54 -0.069 -0.057 -0.513 95.866 8.903 -0.964
11.980 1307.276 86574.97 -0.066 -0.059 -0.298 95.971 8.847 -0.965
12.100 1314.649 86497.02 -0.066 -0.032 -0.025 96.109 8.744 -0.965
12.220 1321.874 86420.69 -0.066 0.013 0.260 96.266 8.627 -0.965
12.339 1328.951 86345.97 -0.065 0.027 0.494 96.411 8.548 -0.966
12.459 1335.881 86272.86 -0.065 0.039 0.730 96.537 8.517 -0.966
12.567 1341.993 86208.43 -0.065 0.008 0.876 96.633 8.522 -0.967
12.664 1347.391 86151.54 -0.067 -0.027 0.999 96.711 8.554 -0.967
12.761 1352.694 86095.70 -0.070 -0.049 1.100 96.800 8.613 -0.968
12.857 1357.900 86040.90 -0.073 -0.066 1.179 96.904 8.700 -0.968
12.954 1363.010 85987.13 -0.080 -0.064 1.235 97.028 8.815 -0.968
13.148 1372.944 85882.70 -0.086 -0.019 1.281 97.326 9.132 -0.969
13.342 1382.495 85782.39 -0.085 0.038 1.237 97.653 9.550 -0.970
13.536 1391.664 85686.17 -0.080 0.000 1.205 97.943 10.021 -0.970
13.710 1399.577 85603.22 -0.084 -0.055 1.166 98.185 10.476 -0.971
13.884 1407.184 85523.53 -0.092 -0.071 1.062 98.469 11.006 -0.972
14.041 1413.769 85454.59 -0.099 -0.071 0.932 98.772 11.565 -0.972
14.197 1420.107 85388.28 -0.108 -0.051 0.757 99.117 12.196 -0.973
14.354 1426.199 85324.59 -0.116 -0.017 0.542 99.499 12.902 -0.973
14.511 1432.044 85263.51 -0.121 0.014 0.291 99.899 13.663 -0.974
14.589 1434.875 85233.94 -0.116 0.009 0.186 100.096 14.051 -0.974
14.667 1437.644 85205.03 -0.117 -0.009 0.092 100.289 14.438 -0.974
14.746 1440.351 85176.76 -0.119 -0.028 -0.008 100.484 14.837 -0.975
14.824 1442.998 85149.15 -0.120 -0.053 -0.094 100.687 15.247 -0.975
14.902 1445.583 85122.17 -0.123 -0.079 -0.173 100.897 15.660 -0.975
14.981 1448.106 85095.85 -0.124 -0.103 -0.244 101.117 16.077 -0.975
15.138 1452.970 85045.13 -0.129 -0.151 -0.351 101.591 16.925 -0.976
15.451 1461.965 84951.41 -0.140 -0.228 -0.401 102.710 18.676 -0.977
15.764 1469.985 84867.91 -0.151 -0.305 -0.162 104.082 20.504 -0.978
16.078 1477.032 84794.59 -0.162 -0.448 0.478 105.733 22.435 -0.980
16.391 1483.109 84731.42 -0.173 -0.736 1.577 107.705 24.522 -0.981
16.704 1488.217 84678.34 -0.182 -1.266 3.443 110.072 26.782 -0.983
17.018 1492.359 84635.32 -0.189 -2.162 6.404 112.955 29.190 -0.985
17.331 1495.536 84602.33 -0.189 -3.638 10.905 116.509 31.733 -0.987
17.645 1497.752 84579.34 -0.179 -6.051 17.324 120.913 34.397 -0.990
17.958 1499.008 84566.30 -0.184 -9.623 25.548 126.423 37.167 -0.996
18.115 1499.278 84563.50 -0.147 -11.871 30.002 129.686 38.589 -1.001
18.214 1499.326 84563.00 -0.142 -13.408 32.798 131.969 39.505 -1.005
18.214 1499.326 84563.00 0.533 0.000 0.000 131.969 39.505 -1.005
18.224 1499.326 84563.00 -0.110 0.000 0.000 132.207 39.598 -1.006
18.234 1499.324 84563.02 -0.103 0.000 0.000 132.446 39.690 -1.006
18.254 1499.318 84563.08 -0.092 0.000 0.000 132.923 39.876 -1.007
18.294 1499.295 84563.32 -0.069 0.000 0.000 133.879 40.248 -1.009
18.374 1499.201 84564.30 -0.053 0.000 0.000 135.804 40.997 -1.012
18.454 1499.043 84565.93 -0.020 0.000 0.000 137.742 41.752 -1.016
18.534 1498.823 84568.22 0.048 0.000 0.000 139.696 42.513 -1.020
18.694 1498.195 84574.74 0.090 0.000 0.000 143.650 44.055 -1.027
18.854 1497.315 84583.87 0.170 0.000 0.000 147.669 45.625 -1.035
19.014 1496.184 84595.61 0.256 0.000 0.000 151.758 47.224 -1.043
19.174 1494.802 84609.96 0.432 0.000 0.000 155.923 48.855 -1.052
19.494 1491.283 84646.49 0.452 0.000 0.000 164.513 52.227 -1.069
19.654 1489.147 84668.68 0.593 0.000 0.000 168.951 53.973 -1.079
19.734 1487.985 84680.75 0.665 0.000 0.000 171.211 54.863 -1.083
19.774 1487.380 84687.03 0.713 0.000 0.000 172.351 55.313 -1.086
19.815 1486.760 84693.47 0.734 -29.652 45.030 173.513 55.765 -1.088
19.835 1486.445 84696.75 0.779 -29.320 44.921 174.116 55.993 -1.090
19.855 1486.125 84700.07 0.807 -28.967 44.807 174.741 56.221 -1.092
19.875 1485.802 84703.43 0.857 -28.582 44.691 175.389 56.450 -1.094
19.915 1485.146 84710.25 0.898 -27.722 44.448 176.754 56.909 -1.099
19.955 1484.475 84717.22 1.005 -26.740 44.193 178.215 57.372 -1.105
20.035 1483.090 84731.61 1.092 -24.408 43.643 181.439 58.308 -1.121
20.115 1481.648 84746.60 1.225 -21.576 43.039 185.083 59.256 -1.141
20.195 1480.149 84762.19 1.351 -18.242 42.376 189.168 60.220 -1.167
20.275 1478.592 84778.37 1.458 -14.482 41.646 193.698 61.199 -1.198
20.347 1477.141 84793.46 1.548 -10.731 40.930 198.165 62.095 -1.230
20.411 1475.794 84807.47 1.601 -7.085 40.239 202.497 62.916 -1.259
20.476 1474.407 84821.90 1.604 -3.264 39.509 207.065 63.753 -1.290
20.541 1472.980 84836.75 1.558 0.643 38.745 211.752 64.601 -1.321
20.570 1472.324 84843.57 1.494 2.369 38.399 213.858 64.984 -1.335
20.599 1471.660 84850.48 1.433 4.059 38.052 215.935 65.364 -1.348
20.629 1470.988 84857.47 1.365 5.698 37.707 217.972 65.743 -1.362
20.658 1470.307 84864.56 1.294 7.276 37.364 219.960 66.119 -1.376
20.687 1469.618 84871.73 1.219 8.779 37.023 221.888 66.494 -1.389
20.716 1468.920 84878.99 1.144 10.207 36.686 223.747 66.866 -1.403
20.745 1468.214 84886.35 1.068 11.548 36.352 225.530 67.236 -1.416
20.774 1467.499 84893.79 0.997 12.795 36.021 227.230 67.604 -1.428
20.804 1466.775 84901.32 0.931 13.963 35.695 228.847 67.969 -1.440
20.830 1466.117 84908.17 0.868 14.926 35.405 230.230 68.295 -1.451
20.856 1465.452 84915.10 0.812 15.816 35.119 231.537 68.619 -1.460
20.882 1464.780 84922.10 0.758 16.624 34.836 232.764 68.942 -1.469
20.909 1464.101 84929.17 0.708 17.345 34.557 233.906 69.261 -1.478
20.935 1463.415 84936.31 0.664 17.975 34.281 234.961 69.579 -1.485
20.961 1462.722 84943.53 0.627 18.528 34.008 235.937 69.894 -1.492
20.984 1462.119 84949.80 0.592 18.939 33.776 236.715 70.163 -1.497
21.006 1461.512 84956.12 0.562 19.289 33.546 237.431 70.431 -1.502
21.029 1460.900 84962.50 0.524 19.579 33.318 238.084 70.696 -1.505
21.074 1459.659 84975.42 0.486 19.968 32.869 239.195 71.222 -1.510
21.119 1458.399 84988.56 0.443 20.100 32.426 240.037 71.739 -1.512
21.164 1457.118 85001.90 0.404 19.972 31.988 240.605 72.249 -1.511
21.210 1455.817 85015.46 0.367 19.581 31.554 240.894 72.751 -1.506
21.255 1454.496 85029.22 0.329 18.931 31.122 240.904 73.245 -1.498
21.300 1453.156 85043.20 0.287 18.031 30.691 240.638 73.732 -1.487
21.345 1451.794 85057.39 0.250 16.893 30.259 240.097 74.210 -1.472
21.366 1451.177 85063.83 0.207 16.296 30.065 239.760 74.423 -1.465
21.386 1450.555 85070.32 0.177 15.647 29.870 239.364 74.634 -1.457
21.406 1449.929 85076.84 0.126 14.947 29.675 238.910 74.844 -1.448
21.447 1448.665 85090.03 0.067 13.408 29.282 237.842 75.260 -1.430
21.488 1447.384 85103.38 0.006 11.701 28.887 236.568 75.671 -1.409
21.506 1446.806 85109.41 -0.066 10.880 28.709 235.933 75.853 -1.400
21.524 1446.224 85115.48 -0.114 10.027 28.530 235.258 76.034 -1.390
21.542 1445.640 85121.58 -0.189 9.146 28.351 234.547 76.215 -1.381
21.578 1444.460 85133.89 -0.268 7.312 27.990 233.031 76.574 -1.361
21.615 1443.268 85146.33 -0.367 5.404 27.628 231.411 76.930 -1.340
21.648 1442.183 85157.64 -0.461 3.662 27.302 229.892 77.247 -1.322
21.680 1441.088 85169.07 -0.540 1.915 26.976 228.345 77.563 -1.303
21.713 1439.983 85180.61 -0.608 0.185 26.650 226.794 77.877 -1.285
21.746 1438.868 85192.25 -0.652 -1.508 26.326 225.254 78.189 -1.266
21.760 1438.362 85197.53 -0.696 -2.262 26.179 224.565 78.331 -1.258
21.775 1437.855 85202.82 -0.718 -3.009 26.031 223.878 78.473 -1.250
21.790 1437.345 85208.14 -0.745 -3.746 25.882 223.197 78.617 -1.241
21.819 1436.320 85218.85 -0.756 -5.183 25.582 221.860 78.907 -1.225
21.849 1435.287 85229.64 -0.752 -6.548 25.279 220.574 79.201 -1.209
21.878 1434.246 85240.51 -0.722 -7.816 24.973 219.362 79.498 -1.193
21.908 1433.196 85251.47 -0.670 -8.975 24.666 218.245 79.800 -1.177
21.937 1432.139 85262.51 -0.592 -10.010 24.357 217.235 80.105 -1.162
21.967 1431.075 85273.64 -0.488 -10.909 24.047 216.346 80.415 -1.147
21.996 1430.002 85284.84 -0.362 -11.660 23.734 215.595 80.728 -1.133
22.025 1428.922 85296.12 -0.212 -12.252 23.420 214.994 81.044 -1.120
22.055 1427.835 85307.49 -0.100 -12.676 23.104 214.547 81.365 -1.107
22.068 1427.343 85312.63 0.006 -12.818 22.961 214.395 81.510 -1.102
22.081 1426.850 85317.78 0.076 -12.929 22.818 214.273 81.656 -1.097
22.095 1426.355 85322.95 0.182 -13.010 22.674 214.179 81.803 -1.092
22.121 1425.361 85333.34 0.368 -13.079 22.385 214.084 82.098 -1.084
22.174 1423.356 85354.30 0.514 -12.843 21.802 214.262 82.696 -1.070
22.201 1422.345 85364.88 0.738 -12.539 21.506 214.538 82.999 -1.066
22.227 1421.327 85375.52 0.847 -12.114 21.207 214.942 83.304 -1.062
22.239 1420.867 85380.33 0.969 -11.876 21.071 215.169 83.443 -1.061
22.251 1420.406 85385.15 1.041 -11.611 20.934 215.425 83.582 -1.059
22.263 1419.944 85389.98 1.146 -11.316 20.796 215.711 83.722 -1.058
22.287 1419.016 85399.69 1.239 -10.646 20.518 216.367 84.004 -1.056
22.311 1418.083 85409.45 1.402 -9.872 20.235 217.134 84.289 -1.055
22.358 1416.202 85429.13 1.477 -8.041 19.658 218.971 84.867 -1.053
22.380 1415.364 85437.90 1.583 -7.120 19.397 219.907 85.126 -1.052
22.401 1414.521 85446.72 1.615 -6.140 19.132 220.909 85.388 -1.052
22.422 1413.674 85455.58 1.627 -5.116 18.864 221.969 85.653 -1.052
22.443 1412.824 85464.48 1.623 -4.047 18.592 223.078 85.920 -1.052
22.464 1411.969 85473.43 1.600 -2.946 18.318 224.227 86.190 -1.052
22.485 1411.110 85482.42 1.561 -1.823 18.040 225.408 86.463 -1.053
22.506 1410.247 85491.46 1.508 -0.684 17.759 226.612 86.739 -1.053
22.527 1409.379 85500.54 1.457 0.462 17.475 227.826 87.017 -1.053
22.537 1408.987 85504.64 1.393 0.972 17.347 228.371 87.142 -1.053
22.546 1408.595 85508.75 1.350 1.477 17.220 228.912 87.266 -1.053
22.556 1408.201 85512.87 1.284 1.976 17.094 229.449 87.391 -1.053
22.575 1407.411 85521.14 1.215 2.954 16.842 230.505 87.638 -1.054
22.594 1406.618 85529.45 1.124 3.896 16.591 231.532 87.884 -1.054
22.613 1405.822 85537.79 1.033 4.796 16.343 232.524 88.128 -1.054
22.632 1405.021 85546.17 0.945 5.648 16.097 233.474 88.371 -1.054
22.651 1404.218 85554.59 0.859 6.445 15.853 234.374 88.612 -1.054
22.670 1403.410 85563.05 0.778 7.176 15.611 235.218 88.852 -1.054
22.689 1402.600 85571.54 0.702 7.842 15.372 235.999 89.090 -1.053
22.708 1401.785 85580.08 0.602 8.435 15.134 236.712 89.326 -1.053
22.746 1400.146 85597.25 0.543 9.387 14.666 237.916 89.794 -1.051
22.763 1399.409 85604.97 0.469 9.710 14.460 238.355 90.001 -1.050
22.780 1398.670 85612.72 0.429 9.969 14.256 238.732 90.206 -1.048
22.797 1397.928 85620.50 0.378 10.163 14.053 239.046 90.410 -1.047
22.830 1396.435 85636.15 0.331 10.354 13.651 239.475 90.815 -1.043
22.864 1394.931 85651.92 0.272 10.280 13.254 239.640 91.214 -1.038
22.898 1393.415 85667.81 0.213 9.948 12.862 239.542 91.608 -1.032
22.932 1391.889 85683.82 0.107 9.369 12.473 239.189 91.998 -1.025
23.000 1388.803 85716.19 0.027 7.552 11.706 237.791 92.761 -1.007
23.029 1387.465 85730.22 -0.120 6.535 11.380 236.931 93.083 -0.999
23.058 1386.119 85744.35 -0.221 5.407 11.056 235.945 93.402 -0.990
23.087 1384.765 85758.56 -0.325 4.207 10.734 234.864 93.718 -0.981
23.117 1383.403 85772.86 -0.423 2.944 10.414 233.714 94.031 -0.971
23.143 1382.169 85785.81 -0.511 1.793 10.127 232.644 94.310 -0.963
23.169 1380.930 85798.82 -0.585 0.639 9.842 231.562 94.587 -0.954
23.195 1379.683 85811.91 -0.636 -0.500 9.559 230.482 94.863 -0.946
23.208 1379.058 85818.48 -0.687 -1.068 9.416 229.942 95.002 -0.942
23.221 1378.431 85825.06 -0.716 -1.632 9.272 229.403 95.142 -0.937
23.234 1377.802 85831.67 -0.740 -2.190 9.126 228.868 95.284 -0.933
23.248 1377.171 85838.29 -0.759 -2.739 8.980 228.338 95.426 -0.929
23.261 1376.539 85844.93 -0.777 -3.278 8.832 227.817 95.570 -0.925
23.287 1375.270 85858.26 -0.773 -4.313 8.533 226.809 95.861 -0.916
23.313 1373.995 85871.65 -0.747 -5.268 8.230 225.867 96.157 -0.908
23.339 1372.714 85885.12 -0.690 -6.132 7.923 225.010 96.458 -0.900
23.365 1371.426 85898.65 -0.592 -6.882 7.611 224.257 96.764 -0.892
23.392 1370.132 85912.25 -0.467 -7.489 7.296 223.630 97.074 -0.885
23.415 1368.963 85924.54 -0.317 -7.912 7.008 223.188 97.357 -0.879
23.439 1367.789 85936.88 -0.152 -8.204 6.717 222.872 97.645 -0.873
23.462 1366.610 85949.28 0.025 -8.360 6.422 222.687 97.936 -0.868
23.486 1365.426 85961.73 0.210 -8.379 6.124 222.640 98.231 -0.864
23.510 1364.237 85974.23 0.488 -8.258 5.822 222.733 98.530 -0.859
23.557 1361.846 85999.38 0.740 -7.602 5.205 223.335 99.141 -0.852
23.604 1359.435 86024.75 1.013 -6.429 4.569 224.468 99.768 -0.847
23.651 1357.004 86050.32 1.169 -4.815 3.915 226.064 100.413 -0.843
23.698 1354.554 86076.11 1.201 -2.898 3.240 228.012 101.077 -0.840
23.741 1352.331 86099.52 1.139 -0.998 2.613 229.962 101.692 -0.838
23.779 1350.315 86120.74 1.043 0.764 2.035 231.781 102.256 -0.836
23.796 1349.404 86130.34 0.917 1.535 1.776 232.593 102.511 -0.835
23.813 1348.490 86139.97 0.832 2.284 1.519 233.384 102.763 -0.834
23.830 1347.573 86149.63 0.745 3.000 1.264 234.149 103.014 -0.833
23.848 1346.653 86159.32 0.661 3.679 1.010 234.879 103.263 -0.833
23.865 1345.730 86169.04 0.579 4.315 0.759 235.571 103.511 -0.832
23.882 1344.805 86178.79 0.501 4.897 0.509 236.216 103.757 -0.831
23.899 1343.877 86188.57 0.428 5.427 0.261 236.809 104.001 -0.830
23.916 1342.945 86198.39 0.360 5.896 0.016 237.345 104.243 -0.829
23.933 1342.011 86208.23 0.299 6.300 -0.227 237.819 104.483 -0.827
23.951 1341.074 86218.10 0.242 6.627 -0.467 238.225 104.720 -0.826
23.968 1340.135 86228.01 0.190 6.885 -0.704 238.559 104.955 -0.825
23.985 1339.192 86237.95 0.143 7.065 -0.938 238.818 105.186 -0.825
24.002 1338.247 86247.92 0.100 7.167 -1.169 239.001 105.416 -0.825
24.019 1337.298 86257.92 0.038 7.192 -1.398 239.106 105.642 -0.825
24.054 1335.393 86278.01 -0.019 7.012 -1.848 239.087 106.087 -0.826
24.085 1333.669 86296.19 -0.102 6.600 -2.245 238.815 106.479 -0.827
24.116 1331.936 86314.48 -0.185 5.972 -2.633 238.321 106.861 -0.830
24.144 1330.368 86331.02 -0.271 5.263 -2.976 237.713 107.199 -0.832
24.169 1328.950 86345.98 -0.361 4.516 -3.279 237.054 107.496 -0.835
24.194 1327.527 86361.01 -0.448 3.689 -3.576 236.307 107.787 -0.838
24.219 1326.097 86376.10 -0.535 2.811 -3.867 235.495 108.073 -0.841
24.244 1324.662 86391.25 -0.618 1.892 -4.152 234.638 108.352 -0.844
24.269 1323.220 86406.47 -0.690 0.961 -4.432 233.757 108.625 -0.847
24.294 1321.773 86421.75 -0.750 0.032 -4.705 232.872 108.893 -0.850
24.319 1320.320 86437.10 -0.790 -0.877 -4.973 231.995 109.156 -0.853
24.332 1319.591 86444.80 -0.830 -1.327 -5.107 231.561 109.287 -0.854
24.344 1318.861 86452.52 -0.850 -1.770 -5.241 231.131 109.419 -0.856
24.357 1318.129 86460.25 -0.865 -2.205 -5.376 230.707 109.551 -0.857
24.369 1317.396 86467.99 -0.872 -2.629 -5.511 230.293 109.683 -0.859
24.382 1316.661 86475.76 -0.874 -3.039 -5.647 229.890 109.816 -0.860
24.394 1315.925 86483.53 -0.860 -3.433 -5.783 229.501 109.949 -0.862
24.419 1314.449 86499.14 -0.821 -4.164 -6.056 228.778 110.217 -0.864
24.444 1312.967 86514.80 -0.750 -4.792 -6.332 228.144 110.487 -0.867
24.467 1311.628 86528.95 -0.652 -5.263 -6.581 227.665 110.732 -0.869
24.489 1310.285 86543.15 -0.466 -5.632 -6.832 227.284 110.979 -0.870
24.535 1307.585 86571.70 -0.275 -6.033 -7.340 226.853 111.477 -0.873
24.570 1305.418 86594.62 -0.008 -6.010 -7.751 226.847 111.881 -0.874
24.603 1303.459 86615.35 0.224 -5.725 -8.124 227.107 112.248 -0.875
24.635 1301.490 86636.18 0.419 -5.199 -8.502 227.612 112.619 -0.874
24.668 1299.512 86657.11 0.569 -4.450 -8.885 228.346 112.995 -0.874
24.700 1297.525 86678.14 0.660 -3.509 -9.272 229.283 113.374 -0.873
24.732 1295.529 86699.28 0.691 -2.427 -9.662 230.380 113.757 -0.871
24.765 1293.522 86720.53 0.665 -1.231 -10.057 231.595 114.144 -0.870
24.797 1291.506 86741.88 0.611 0.014 -10.455 232.870 114.532 -0.869
24.812 1290.596 86751.53 0.530 0.566 -10.631 233.445 114.705 -0.868
24.826 1289.684 86761.19 0.473 1.108 -10.805 234.010 114.876 -0.868
24.841 1288.769 86770.88 0.414 1.632 -10.977 234.561 115.044 -0.867
24.855 1287.853 86780.59 0.353 2.136 -11.146 235.093 115.210 -0.867
24.870 1286.935 86790.32 0.293 2.612 -11.313 235.603 115.373 -0.866
24.885 1286.014 86800.08 0.233 3.060 -11.478 236.084 115.534 -0.866
24.899 1285.092 86809.85 0.176 3.474 -11.640 236.535 115.693 -0.865
24.914 1284.167 86819.65 0.123 3.850 -11.800 236.951 115.850 -0.865
24.928 1283.241 86829.47 0.071 4.183 -11.958 237.327 116.005 -0.865
24.943 1282.313 86839.31 0.021 4.473 -12.114 237.661 116.157 -0.864
24.958 1281.382 86849.18 -0.024 4.715 -12.268 237.949 116.308 -0.864
24.972 1280.450 86859.07 -0.067 4.909 -12.420 238.191 116.456 -0.864
24.987 1279.515 86868.98 -0.106 5.053 -12.570 238.384 116.603 -0.864
25.001 1278.579 86878.91 -0.161 5.146 -12.718 238.527 116.747 -0.865
25.030 1276.700 86898.84 -0.249 5.181 -13.008 238.661 117.030 -0.866
25.089 1272.917 86938.97 -0.359 4.663 -13.564 238.346 117.572 -0.869
25.147 1269.103 86979.46 -0.477 3.472 -14.090 237.348 118.083 -0.874
25.176 1267.183 86999.84 -0.604 2.703 -14.341 236.650 118.326 -0.877
25.205 1265.256 87020.31 -0.683 1.854 -14.584 235.866 118.562 -0.880
25.234 1263.321 87040.86 -0.750 0.971 -14.819 235.034 118.789 -0.883
25.264 1261.377 87061.51 -0.800 0.080 -15.046 234.187 119.009 -0.886
25.293 1259.426 87082.24 -0.830 -0.787 -15.266 233.349 119.223 -0.889
25.307 1258.448 87092.64 -0.860 -1.213 -15.375 232.937 119.329 -0.890
25.322 1257.467 87103.06 -0.871 -1.629 -15.485 232.532 119.435 -0.892
25.336 1256.485 87113.50 -0.872 -2.031 -15.594 232.138 119.541 -0.893
25.351 1255.501 87123.96 -0.864 -2.414 -15.704 231.761 119.647 -0.895
25.366 1254.515 87134.44 -0.846 -2.774 -15.814 231.404 119.753 -0.896
25.380 1253.526 87144.95 -0.797 -3.108 -15.924 231.071 119.860 -0.897
25.409 1251.544 87166.03 -0.724 -3.681 -16.145 230.496 120.073 -0.900
25.438 1249.555 87187.19 -0.592 -4.108 -16.367 230.061 120.288 -0.903
25.468 1247.558 87208.43 -0.436 -4.353 -16.589 229.794 120.503 -0.905
25.494 1245.754 87227.62 -0.275 -4.415 -16.791 229.714 120.698 -0.907
25.517 1244.126 87244.95 -0.118 -4.336 -16.973 229.774 120.874 -0.907
25.541 1242.492 87262.34 0.025 -4.131 -17.157 229.962 121.051 -0.908
25.565 1240.854 87279.78 0.153 -3.805 -17.341 230.273 121.229 -0.908
25.588 1239.211 87297.27 0.254 -3.368 -17.526 230.699 121.407 -0.908
25.612 1237.563 87314.82 0.329 -2.841 -17.711 231.226 121.587 -0.907
25.636 1235.909 87332.43 0.377 -2.227 -17.896 231.840 121.766 -0.907
25.659 1234.251 87350.09 0.392 -1.550 -18.083 232.525 121.946 -0.907
25.683 1232.588 87367.81 0.381 -0.831 -18.269 233.261 122.127 -0.906
25.706 1230.920 87385.59 0.346 -0.084 -18.456 234.029 122.308 -0.906
25.730 1229.246 87403.42 0.306 0.670 -18.644 234.807 122.488 -0.906
25.742 1228.408 87412.36 0.253 1.035 -18.735 235.189 122.577 -0.905
25.754 1227.568 87421.31 0.215 1.390 -18.826 235.562 122.665 -0.905
25.765 1226.726 87430.28 0.176 1.730 -18.915 235.922 122.751 -0.905
25.777 1225.884 87439.27 0.136 2.053 -19.003 236.267 122.836 -0.905
25.789 1225.040 87448.26 0.096 2.356 -19.090 236.594 122.919 -0.905
25.801 1224.195 87457.27 0.056 2.638 -19.175 236.901 123.001 -0.905
25.813 1223.348 87466.30 -0.001 2.896 -19.259 237.186 123.082 -0.905
25.836 1221.652 87484.40 -0.054 3.337 -19.423 237.683 123.240 -0.904
25.860 1219.950 87502.55 -0.119 3.667 -19.582 238.074 123.392 -0.904
25.883 1218.242 87520.77 -0.179 3.878 -19.736 238.349 123.540 -0.904
25.907 1216.530 87539.04 -0.237 3.955 -19.885 238.498 123.683 -0.904
25.931 1214.812 87557.37 -0.296 3.909 -20.030 238.520 123.821 -0.905
25.954 1213.089 87575.76 -0.353 3.737 -20.170 238.418 123.954 -0.905
25.978 1211.361 87594.21 -0.407 3.462 -20.305 238.204 124.083 -0.906
25.999 1209.801 87610.87 -0.460 3.128 -20.423 237.926 124.195 -0.907
26.020 1208.237 87627.57 -0.510 2.727 -20.536 237.575 124.303 -0.908
26.042 1206.669 87644.32 -0.561 2.268 -20.646 237.163 124.407 -0.909
26.063 1205.097 87661.12 -0.610 1.765 -20.752 236.701 124.507 -0.910
26.084 1203.520 87677.96 -0.653 1.236 -20.854 236.207 124.603 -0.911
26.105 1201.940 87694.85 -0.687 0.690 -20.952 235.693 124.696 -0.912
26.127 1200.355 87711.79 -0.710 0.145 -21.046 235.173 124.785 -0.913
26.148 1198.766 87728.78 -0.736 -0.391 -21.137 234.656 124.871 -0.914
26.169 1197.172 87745.81 -0.755 -0.926 -21.228 234.143 124.955 -0.915
26.179 1196.454 87753.49 -0.762 -1.159 -21.268 233.914 124.993 -0.915
26.188 1195.735 87761.18 -0.763 -1.389 -21.308 233.690 125.031 -0.916
26.198 1195.015 87768.88 -0.760 -1.611 -21.348 233.471 125.069 -0.916
26.207 1194.294 87776.59 -0.752 -1.827 -21.388 233.258 125.106 -0.916
26.217 1193.573 87784.30 -0.739 -2.033 -21.427 233.053 125.143 -0.917
26.226 1192.850 87792.03 -0.722 -2.228 -21.467 232.858 125.180 -0.917
26.236 1192.127 87799.77 -0.701 -2.413 -21.506 232.673 125.217 -0.917
26.246 1191.403 87807.51 -0.674 -2.584 -21.545 232.500 125.253 -0.918
26.255 1190.678 87815.27 -0.628 -2.742 -21.584 232.340 125.290 -0.918
26.274 1189.226 87830.80 -0.528 -3.013 -21.661 232.062 125.362 -0.919
26.313 1186.312 87861.99 -0.400 -3.359 -21.813 231.699 125.503 -0.921
26.345 1183.814 87888.73 -0.217 -3.426 -21.940 231.613 125.621 -0.922
26.375 1181.558 87912.89 -0.045 -3.299 -22.052 231.721 125.725 -0.923
26.404 1179.294 87937.14 0.105 -2.999 -22.162 232.004 125.827 -0.924
26.433 1177.022 87961.47 0.228 -2.540 -22.270 232.452 125.927 -0.925
26.463 1174.743 87985.89 0.309 -1.944 -22.375 233.041 126.024 -0.927
26.492 1172.456 88010.40 0.350 -1.253 -22.478 233.741 126.119 -0.928
26.522 1170.161 88035.00 0.353 -0.488 -22.578 234.518 126.212 -0.929
26.548 1168.089 88057.22 0.331 0.223 -22.665 235.247 126.292 -0.930
26.561 1167.050 88068.35 0.292 0.569 -22.707 235.609 126.331 -0.930
26.574 1166.010 88079.50 0.260 0.906 -22.748 235.961 126.368 -0.931
26.588 1164.969 88090.68 0.227 1.227 -22.788 236.301 126.404 -0.932
26.601 1163.926 88101.87 0.192 1.530 -22.826 236.625 126.439 -0.932
26.614 1162.881 88113.07 0.156 1.812 -22.862 236.929 126.472 -0.933
26.627 1161.834 88124.30 0.119 2.070 -22.898 237.211 126.504 -0.933
26.641 1160.786 88135.55 0.082 2.298 -22.932 237.467 126.535 -0.934
26.654 1159.737 88146.81 0.046 2.497 -22.965 237.694 126.564 -0.934
26.667 1158.685 88158.09 -0.006 2.664 -22.997 237.891 126.593 -0.935
26.694 1156.578 88180.71 -0.055 2.897 -23.057 238.186 126.645 -0.936
26.720 1154.464 88203.41 -0.117 2.990 -23.112 238.344 126.693 -0.937
26.746 1152.344 88226.18 -0.176 2.945 -23.162 238.363 126.736 -0.938
26.773 1150.217 88249.02 -0.265 2.766 -23.208 238.249 126.774 -0.939
26.826 1145.944 88294.93 -0.351 2.065 -23.284 237.675 126.836 -0.941
26.879 1141.645 88341.13 -0.441 1.043 -23.342 236.762 126.881 -0.943
26.926 1137.755 88382.96 -0.485 0.044 -23.378 235.817 126.905 -0.944
26.948 1135.997 88401.87 -0.508 -0.399 -23.390 235.390 126.912 -0.945
26.969 1134.236 88420.82 -0.510 -0.835 -23.400 234.970 126.915 -0.946
26.991 1132.470 88439.82 -0.498 -1.245 -23.406 234.566 126.917 -0.947
27.010 1130.884 88456.88 -0.472 -1.586 -23.410 234.229 126.915 -0.947
27.029 1129.295 88473.98 -0.431 -1.889 -23.411 233.926 126.912 -0.948
27.048 1127.703 88491.12 -0.372 -2.148 -23.410 233.664 126.906 -0.949
27.067 1126.107 88508.30 -0.298 -2.350 -23.407 233.454 126.898 -0.950
27.087 1124.509 88525.52 -0.214 -2.492 -23.402 233.303 126.888 -0.950
27.106 1122.907 88542.77 -0.120 -2.569 -23.394 233.215 126.875 -0.951
27.125 1121.301 88560.06 -0.023 -2.578 -23.384 233.194 126.860 -0.952
27.144 1119.693 88577.39 0.076 -2.519 -23.372 233.242 126.842 -0.952
27.163 1118.081 88594.75 0.213 -2.393 -23.357 233.357 126.822 -0.953
27.202 1114.848 88629.60 0.315 -1.953 -23.319 233.777 126.774 -0.954
27.236 1111.927 88661.08 0.414 -1.392 -23.275 234.338 126.722 -0.955
27.267 1109.290 88689.53 0.463 -0.778 -23.228 234.953 126.667 -0.957
27.295 1106.908 88715.21 0.472 -0.182 -23.179 235.564 126.611 -0.958
27.323 1104.520 88740.98 0.459 0.430 -23.124 236.193 126.550 -0.958
27.336 1103.443 88752.60 0.424 0.693 -23.098 236.470 126.520 -0.959
27.349 1102.364 88764.24 0.397 0.945 -23.071 236.737 126.491 -0.959
27.361 1101.284 88775.90 0.368 1.182 -23.044 236.991 126.460 -0.960
27.374 1100.203 88787.57 0.338 1.402 -23.016 237.229 126.429 -0.960
27.386 1099.120 88799.26 0.307 1.602 -22.987 237.449 126.397 -0.961
27.399 1098.036 88810.97 0.276 1.780 -22.958 237.649 126.365 -0.961
27.412 1096.950 88822.69 0.230 1.935 -22.928 237.826 126.331 -0.961
27.437 1094.775 88846.19 0.184 2.168 -22.866 238.107 126.263 -0.962
27.462 1092.593 88869.75 0.125 2.285 -22.801 238.278 126.193 -0.963
27.485 1090.625 88891.01 0.072 2.293 -22.741 238.334 126.127 -0.964
27.505 1088.849 88910.20 0.022 2.222 -22.686 238.307 126.066 -0.965
27.526 1087.070 88929.43 -0.025 2.081 -22.629 238.209 126.004 -0.965
27.546 1085.287 88948.70 -0.069 1.879 -22.570 238.047 125.940 -0.966
27.566 1083.500 88968.02 -0.110 1.628 -22.509 237.830 125.875 -0.966
27.587 1081.710 88987.38 -0.148 1.332 -22.447 237.569 125.808 -0.967
27.607 1079.915 89006.79 -0.180 1.007 -22.383 237.272 125.739 -0.968
27.628 1078.117 89026.24 -0.206 0.663 -22.318 236.953 125.669 -0.968
27.648 1076.316 89045.73 -0.224 0.310 -22.251 236.621 125.598 -0.969
27.668 1074.510 89065.27 -0.236 -0.041 -22.183 236.284 125.524 -0.970
27.689 1072.701 89084.85 -0.241 -0.397 -22.110 235.946 125.447 -0.970
27.698 1071.886 89093.67 -0.240 -0.553 -22.075 235.794 125.411 -0.971
27.707 1071.070 89102.51 -0.236 -0.707 -22.040 235.644 125.374 -0.971
27.716 1070.253 89111.35 -0.229 -0.857 -22.005 235.497 125.336 -0.971
27.726 1069.435 89120.20 -0.219 -1.002 -21.968 235.354 125.297 -0.972
27.735 1068.617 89129.06 -0.199 -1.141 -21.930 235.216 125.257 -0.972
27.753 1066.978 89146.81 -0.169 -1.399 -21.852 234.959 125.175 -0.972
27.771 1065.336 89164.59 -0.121 -1.620 -21.770 234.735 125.089 -0.973
27.790 1063.691 89182.41 -0.062 -1.802 -21.685 234.549 125.000 -0.974
27.808 1062.044 89200.26 0.047 -1.937 -21.596 234.407 124.906 -0.974
27.845 1058.739 89236.07 0.124 -2.054 -21.406 234.277 124.708 -0.975
27.861 1057.249 89252.23 0.252 -2.031 -21.315 234.289 124.613 -0.976
27.878 1055.756 89268.41 0.327 -1.963 -21.221 234.348 124.516 -0.976
27.895 1054.260 89284.63 0.399 -1.854 -21.124 234.451 124.415 -0.977
27.911 1052.762 89300.87 0.466 -1.704 -21.023 234.594 124.310 -0.977
27.928 1051.262 89317.14 0.524 -1.517 -20.919 234.777 124.202 -0.978
27.944 1049.760 89333.44 0.573 -1.296 -20.810 234.995 124.091 -0.978
27.961 1048.255 89349.77 0.611 -1.047 -20.699 235.244 123.975 -0.979
27.977 1046.747 89366.12 0.639 -0.775 -20.583 235.519 123.857 -0.979
27.994 1045.238 89382.51 0.656 -0.486 -20.464 235.813 123.734 -0.980
28.010 1043.725 89398.92 0.664 -0.186 -20.341 236.121 123.608 -0.980
28.027 1042.211 89415.36 0.649 0.120 -20.214 236.436 123.479 -0.981
28.043 1040.694 89431.83 0.625 0.413 -20.089 236.744 123.349 -0.981
28.058 1039.327 89446.68 0.597 0.668 -19.973 237.010 123.232 -0.982
28.072 1038.094 89460.06 0.562 0.879 -19.871 237.237 123.126 -0.982
28.085 1036.860 89473.47 0.532 1.075 -19.769 237.449 123.021 -0.982
28.098 1035.625 89486.89 0.499 1.252 -19.666 237.644 122.916 -0.983
28.112 1034.388 89500.33 0.465 1.405 -19.564 237.817 122.811 -0.983
28.125 1033.149 89513.79 0.431 1.535 -19.461 237.968 122.706 -0.984
28.139 1031.909 89527.27 0.380 1.640 -19.359 238.094 122.601 -0.984
28.165 1029.423 89554.28 0.333 1.768 -19.154 238.267 122.391 -0.985
28.189 1027.181 89578.66 0.271 1.791 -18.970 238.331 122.202 -0.985
28.213 1024.933 89603.10 0.215 1.726 -18.786 238.308 122.013 -0.986
28.238 1022.680 89627.60 0.160 1.582 -18.601 238.204 121.824 -0.987
28.262 1020.422 89652.16 0.107 1.366 -18.417 238.026 121.636 -0.987
28.286 1018.159 89676.78 0.061 1.093 -18.233 237.787 121.447 -0.988
28.310 1015.891 89701.47 0.020 0.781 -18.049 237.503 121.259 -0.989
28.334 1013.618 89726.22 -0.011 0.442 -17.864 237.191 121.070 -0.989
28.358 1011.339 89751.03 -0.031 0.099 -17.680 236.866 120.881 -0.990
28.382 1009.055 89775.90 -0.037 -0.239 -17.495 236.542 120.691 -0.991
28.404 1006.996 89798.33 -0.032 -0.538 -17.320 236.257 120.515 -0.991
28.415 1005.964 89809.57 -0.021 -0.679 -17.230 236.118 120.423 -0.992
28.426 1004.932 89820.82 -0.008 -0.815 -17.139 235.984 120.330 -0.992
28.436 1003.899 89832.08 0.008 -0.943 -17.045 235.857 120.235 -0.992
28.447 1002.864 89843.35 0.027 -1.063 -16.950 235.738 120.138 -0.992
28.458 1001.829 89854.64 0.064 -1.172 -16.853 235.628 120.039 -0.993
28.480 999.755 89877.24 0.109 -1.356 -16.652 235.442 119.835 -0.993
28.502 997.677 89899.90 0.179 -1.483 -16.444 235.309 119.623 -0.994
28.523 995.595 89922.60 0.256 -1.550 -16.228 235.235 119.403 -0.994
28.545 993.509 89945.36 0.337 -1.552 -16.003 235.225 119.175 -0.995
28.567 991.419 89968.16 0.418 -1.489 -15.770 235.280 118.939 -0.996
28.588 989.325 89991.01 0.525 -1.363 -15.528 235.399 118.694 -0.996
28.632 985.124 90036.86 0.600 -0.944 -15.017 235.807 118.176 -0.997
28.675 980.908 90082.90 0.648 -0.372 -14.469 236.384 117.622 -0.998
28.695 979.005 90103.69 0.667 -0.086 -14.209 236.678 117.360 -0.999
28.714 977.099 90124.51 0.644 0.205 -13.942 236.978 117.092 -0.999
28.734 975.189 90145.37 0.606 0.477 -13.679 237.267 116.824 -1.000
28.751 973.468 90164.19 0.567 0.705 -13.440 237.509 116.586 -1.000
28.767 971.920 90181.11 0.521 0.887 -13.229 237.707 116.372 -1.001
28.783 970.369 90198.06 0.480 1.045 -13.020 237.883 116.161 -1.001
28.799 968.816 90215.04 0.437 1.176 -12.811 238.032 115.950 -1.001
28.814 967.261 90232.05 0.394 1.277 -12.604 238.154 115.741 -1.002
28.830 965.704 90249.08 0.350 1.345 -12.398 238.244 115.534 -1.002
28.846 964.145 90266.14 0.306 1.381 -12.193 238.301 115.327 -1.003
28.862 962.583 90283.22 0.263 1.382 -11.990 238.325 115.122 -1.003
28.877 961.019 90300.33 0.221 1.352 -11.788 238.316 114.918 -1.003
28.893 959.454 90317.47 0.161 1.290 -11.587 238.276 114.716 -1.004
28.925 956.315 90351.82 0.111 1.083 -11.188 238.113 114.314 -1.004
28.951 953.691 90380.56 0.049 0.846 -10.859 237.905 113.983 -1.005
28.977 951.060 90409.37 0.001 0.566 -10.533 237.651 113.655 -1.006
29.004 948.424 90438.25 -0.035 0.264 -10.210 237.370 113.329 -1.006
29.030 945.782 90467.21 -0.057 -0.041 -9.890 237.079 113.004 -1.007
29.056 943.133 90496.24 -0.064 -0.351 -9.551 236.786 112.667 -1.007
29.068 941.964 90509.06 -0.064 -0.481 -9.398 236.659 112.513 -1.008
29.080 940.794 90521.89 -0.059 -0.606 -9.242 236.536 112.356 -1.008
29.091 939.622 90534.74 -0.051 -0.724 -9.082 236.420 112.196 -1.008
29.103 938.449 90547.60 -0.031 -0.833 -8.920 236.312 112.033 -1.008
29.126 936.101 90573.36 -0.007 -1.019 -8.587 236.125 111.698 -1.009
29.147 933.983 90596.59 0.034 -1.145 -8.275 235.998 111.386 -1.009
29.168 931.861 90619.87 0.080 -1.224 -7.954 235.915 111.063 -1.010
29.189 929.736 90643.20 0.132 -1.253 -7.621 235.882 110.729 -1.010
29.210 927.607 90666.57 0.181 -1.226 -7.278 235.902 110.385 -1.011
29.231 925.475 90689.98 0.227 -1.151 -6.923 235.975 110.029 -1.011
29.251 923.339 90713.45 0.264 -1.025 -6.557 236.097 109.662 -1.012
29.270 921.413 90734.60 0.291 -0.874 -6.218 236.246 109.322 -1.012
29.289 919.484 90755.79 0.306 -0.693 -5.868 236.428 108.972 -1.013
29.308 917.552 90777.02 0.309 -0.487 -5.509 236.636 108.612 -1.013
29.327 915.618 90798.28 0.301 -0.264 -5.139 236.864 108.242 -1.014
29.345 913.680 90819.59 0.282 -0.030 -4.760 237.105 107.862 -1.014
29.364 911.739 90840.93 0.247 0.206 -4.369 237.349 107.475 -1.014
29.381 909.990 90860.16 0.202 0.406 -4.024 237.561 107.127 -1.015
29.396 908.471 90876.86 0.160 0.566 -3.725 237.732 106.828 -1.015
29.409 907.103 90891.92 0.118 0.698 -3.458 237.874 106.562 -1.015
29.422 905.733 90906.99 0.056 0.814 -3.194 238.003 106.298 -1.015
29.449 902.989 90937.18 -0.006 0.995 -2.673 238.210 105.777 -1.016
29.475 900.239 90967.45 -0.084 1.100 -2.159 238.343 105.264 -1.017
29.499 897.759 90994.76 -0.160 1.126 -1.705 238.396 104.809 -1.017
29.523 895.274 91022.12 -0.230 1.089 -1.256 238.385 104.361 -1.017
29.546 892.784 91049.55 -0.297 0.992 -0.814 238.314 103.920 -1.018
29.570 890.290 91077.04 -0.359 0.843 -0.378 238.189 103.484 -1.018
29.594 887.790 91104.58 -0.413 0.653 0.052 238.021 103.057 -1.019
29.618 885.286 91132.19 -0.457 0.435 0.463 237.822 102.642 -1.019
29.641 882.777 91159.86 -0.488 0.200 0.864 237.604 102.243 -1.020
29.663 880.514 91184.81 -0.515 -0.012 1.208 237.401 101.895 -1.020
29.682 878.475 91207.30 -0.538 -0.206 1.522 237.218 101.583 -1.020
29.699 876.637 91227.58 -0.553 -0.373 1.803 237.055 101.299 -1.021
29.715 874.980 91245.86 -0.562 -0.515 2.060 236.916 101.042 -1.021
29.730 873.322 91264.17 -0.564 -0.646 2.318 236.788 100.784 -1.021
29.746 871.661 91282.50 -0.555 -0.761 2.577 236.674 100.524 -1.022
29.777 868.334 91319.24 -0.538 -0.932 3.102 236.503 99.998 -1.022
29.805 865.333 91352.39 -0.507 -1.007 3.580 236.426 99.520 -1.023
29.831 862.626 91382.29 -0.473 -1.004 4.015 236.426 99.084 -1.023
29.856 859.913 91412.27 -0.441 -0.934 4.456 236.494 98.643 -1.024
29.881 857.196 91442.30 -0.419 -0.798 4.902 236.628 98.197 -1.024
29.906 854.473 91472.41 -0.411 -0.607 5.352 236.819 97.746 -1.025
29.932 851.745 91502.58 -0.419 -0.374 5.809 237.056 97.290 -1.025
29.957 849.011 91532.83 -0.444 -0.112 6.270 237.325 96.828 -1.026
29.982 846.272 91563.13 -0.468 0.161 6.737 237.604 96.367 -1.026
29.993 845.038 91576.80 -0.490 0.277 6.942 237.727 96.162 -1.026
30.005 843.802 91590.47 -0.506 0.388 7.143 237.845 95.962 -1.026
30.016 842.566 91604.16 -0.531 0.491 7.339 237.956 95.765 -1.027
30.039 840.090 91631.58 -0.557 0.670 7.721 238.151 95.384 -1.027
30.062 837.609 91659.05 -0.592 0.805 8.088 238.304 95.018 -1.027
30.084 835.124 91686.58 -0.628 0.889 8.439 238.408 94.667 -1.028
30.107 832.634 91714.16 -0.662 0.919 8.776 238.460 94.332 -1.028
30.130 830.141 91741.80 -0.694 0.896 9.098 238.458 94.010 -1.029
30.153 827.642 91769.50 -0.721 0.822 9.407 238.406 93.703 -1.029
30.175 825.140 91797.25 -0.745 0.705 9.701 238.309 93.409 -1.029
30.198 822.633 91825.05 -0.762 0.553 9.983 238.175 93.129 -1.030
30.221 820.122 91852.91 -0.771 0.376 10.251 238.014 92.862 -1.030
30.244 817.606 91880.83 -0.772 0.185 10.507 237.837 92.608 -1.030
30.266 815.086 91908.80 -0.784 -0.010 10.751 237.653 92.364 -1.031
30.289 812.562 91936.83 -0.798 -0.208 10.998 237.467 92.123 -1.031
30.299 811.424 91949.46 -0.800 -0.293 11.107 237.384 92.013 -1.031
30.309 810.286 91962.10 -0.802 -0.376 11.218 237.304 91.903 -1.031
30.320 809.147 91974.75 -0.800 -0.455 11.328 237.227 91.794 -1.032
30.330 808.007 91987.41 -0.795 -0.529 11.439 237.155 91.684 -1.032
30.340 806.866 92000.08 -0.785 -0.596 11.549 237.088 91.575 -1.032
30.361 804.582 92025.46 -0.769 -0.711 11.770 236.975 91.355 -1.032
30.381 802.294 92050.89 -0.741 -0.793 11.991 236.893 91.136 -1.033
30.402 800.003 92076.36 -0.708 -0.836 12.212 236.848 90.917 -1.033
30.422 797.708 92101.87 -0.673 -0.840 12.434 236.844 90.697 -1.033
30.442 795.410 92127.43 -0.637 -0.802 12.656 236.880 90.477 -1.034
30.463 793.108 92153.03 -0.606 -0.724 12.877 236.957 90.258 -1.034
30.483 790.803 92178.68 -0.580 -0.611 13.099 237.071 90.038 -1.034
30.504 788.495 92204.37 -0.562 -0.467 13.321 237.216 89.818 -1.035
30.524 786.183 92230.10 -0.553 -0.299 13.543 237.387 89.598 -1.035
30.545 783.867 92255.88 -0.554 -0.115 13.765 237.576 89.378 -1.035
30.565 781.548 92281.71 -0.552 0.076 13.988 237.774 89.160 -1.035
30.586 779.226 92307.57 -0.547 0.253 14.196 237.964 88.950 -1.036
30.595 778.180 92319.23 -0.551 0.328 14.288 238.044 88.860 -1.036
30.604 777.133 92330.89 -0.553 0.399 14.377 238.120 88.771 -1.036
30.613 776.085 92342.57 -0.556 0.464 14.465 238.191 88.685 -1.036
30.622 775.037 92354.25 -0.561 0.523 14.550 238.256 88.601 -1.036
30.641 772.938 92377.64 -0.568 0.623 14.716 238.369 88.438 -1.037
30.659 770.836 92401.07 -0.583 0.694 14.873 238.455 88.282 -1.037
30.696 766.625 92448.04 -0.597 0.746 15.167 238.537 87.993 -1.037
30.733 762.401 92495.15 -0.612 0.678 15.432 238.501 87.733 -1.038
30.770 758.167 92542.41 -0.619 0.509 15.669 238.361 87.501 -1.038
30.807 753.921 92589.81 -0.611 0.271 15.880 238.150 87.294 -1.039
30.843 749.664 92637.36 -0.584 0.006 16.066 237.905 87.114 -1.039
30.880 745.396 92685.06 -0.557 -0.243 16.228 237.668 86.955 -1.040
30.917 741.117 92732.90 -0.534 -0.462 16.383 237.465 86.809 -1.040
30.934 739.187 92754.47 -0.492 -0.536 16.448 237.392 86.746 -1.041
30.950 737.256 92776.08 -0.463 -0.593 16.511 237.335 86.685 -1.041
30.967 735.322 92797.71 -0.428 -0.631 16.572 237.298 86.627 -1.041
30.983 733.386 92819.37 -0.391 -0.647 16.631 237.282 86.571 -1.041
31.000 731.447 92841.06 -0.354 -0.641 16.687 237.287 86.517 -1.041
31.016 729.507 92862.79 -0.298 -0.613 16.741 237.315 86.466 -1.042
31.050 725.619 92906.31 -0.247 -0.495 16.840 237.433 86.371 -1.042
31.083 721.722 92949.96 -0.192 -0.307 16.930 237.624 86.287 -1.043
31.116 717.816 92993.72 -0.154 -0.074 17.008 237.863 86.214 -1.043
31.149 713.901 93037.61 -0.139 0.174 17.075 238.118 86.153 -1.043
31.166 711.941 93059.59 -0.134 0.285 17.103 238.238 86.127 -1.044
31.182 709.978 93081.60 -0.136 0.384 17.127 238.346 86.106 -1.044
31.199 708.012 93103.65 -0.141 0.466 17.147 238.439 86.089 -1.044
31.215 706.045 93125.72 -0.147 0.528 17.163 238.513 86.076 -1.044
31.232 704.075 93147.83 -0.159 0.570 17.175 238.567 86.066 -1.044
31.265 700.128 93192.12 -0.171 0.590 17.188 238.611 86.058 -1.045
31.298 696.173 93236.53 -0.184 0.527 17.187 238.574 86.064 -1.045
31.331 692.208 93281.07 -0.191 0.395 17.172 238.466 86.085 -1.046
31.364 688.235 93325.72 -0.188 0.217 17.144 238.308 86.118 -1.046
31.398 684.253 93370.48 -0.171 0.019 17.103 238.128 86.164 -1.046
31.431 680.261 93415.37 -0.137 -0.169 17.049 237.950 86.223 -1.047
31.464 676.261 93460.37 -0.102 -0.339 16.977 237.793 86.299 -1.047
31.479 674.458 93480.66 -0.056 -0.400 16.939 237.733 86.340 -1.047
31.494 672.653 93500.98 -0.023 -0.450 16.898 237.684 86.384 -1.048
31.509 670.846 93521.32 0.013 -0.486 16.852 237.648 86.431 -1.048
31.524 669.038 93541.68 0.052 -0.509 16.803 237.626 86.483 -1.048
31.538 667.228 93562.06 0.112 -0.516 16.749 237.619 86.539 -1.048
31.568 663.602 93602.90 0.171 -0.484 16.630 237.651 86.662 -1.048
31.598 659.969 93643.84 0.247 -0.393 16.495 237.742 86.802 -1.049
31.628 656.329 93684.87 0.339 -0.254 16.342 237.884 86.960 -1.049
31.688 649.027 93767.22 0.367 0.102 15.980 238.235 87.321 -1.050
31.711 646.139 93799.82 0.365 0.229 15.829 238.374 87.476 -1.050
31.735 643.246 93832.47 0.349 0.334 15.675 238.491 87.634 -1.050
31.758 640.348 93865.18 0.326 0.409 15.517 238.580 87.794 -1.050
31.782 637.447 93897.95 0.302 0.449 15.358 238.635 87.957 -1.051
31.805 634.540 93930.79 0.277 0.453 15.195 238.654 88.123 -1.051
31.829 631.629 93963.68 0.244 0.422 15.030 238.639 88.291 -1.051
31.876 625.794 94029.64 0.219 0.274 14.693 238.523 88.634 -1.052
31.923 619.941 94095.84 0.206 0.059 14.345 238.335 88.987 -1.052
31.965 614.659 94155.63 0.217 -0.135 14.025 238.154 89.319 -1.053
31.984 612.277 94182.60 0.259 -0.213 13.868 238.080 89.477 -1.053
32.003 609.892 94209.60 0.293 -0.281 13.703 238.015 89.645 -1.053
32.023 607.504 94236.65 0.333 -0.334 13.528 237.964 89.821 -1.053
32.042 605.113 94263.73 0.376 -0.370 13.343 237.930 90.008 -1.053
32.061 602.720 94290.86 0.421 -0.387 13.149 237.914 90.204 -1.054
32.080 600.323 94318.02 0.490 -0.383 12.944 237.919 90.410 -1.054
32.118 595.522 94372.46 0.552 -0.315 12.504 237.989 90.854 -1.054
32.156 590.709 94427.06 0.623 -0.178 12.020 238.128 91.341 -1.054
32.194 585.884 94481.82 0.672 -0.001 11.490 238.312 91.874 -1.055
32.232 581.048 94536.73 0.676 0.180 10.912 238.502 92.445 -1.055
32.249 578.868 94561.49 0.632 0.247 10.653 238.577 92.706 -1.055
32.267 576.685 94586.29 0.599 0.301 10.394 238.640 92.966 -1.055
32.284 574.500 94611.11 0.561 0.340 10.137 238.688 93.224 -1.056
32.301 572.313 94635.97 0.524 0.362 9.881 238.720 93.480 -1.056
32.318 570.124 94660.86 0.487 0.368 9.627 238.735 93.735 -1.056
32.335 567.932 94685.78 0.434 0.357 9.375 238.734 93.988 -1.056
32.369 563.541 94735.72 0.386 0.290 8.875 238.687 94.489 -1.056
32.404 559.141 94785.79 0.329 0.178 8.381 238.593 94.985 -1.057
32.438 554.732 94835.98 0.286 0.043 7.892 238.473 95.474 -1.057
32.472 550.314 94886.30 0.271 -0.090 7.409 238.350 95.966 -1.057
32.488 548.322 94908.99 0.281 -0.146 7.180 238.298 96.194 -1.057
32.503 546.329 94931.70 0.292 -0.197 6.944 238.250 96.431 -1.058
32.519 544.334 94954.44 0.306 -0.241 6.699 238.209 96.675 -1.058
32.534 542.337 94977.20 0.320 -0.276 6.446 238.175 96.929 -1.058
32.550 540.338 94999.99 0.335 -0.300 6.183 238.152 97.191 -1.058
32.565 538.337 95022.81 0.358 -0.314 5.912 238.139 97.462 -1.058
32.596 534.330 95068.51 0.376 -0.307 5.341 238.149 98.033 -1.058
32.627 530.316 95114.32 0.392 -0.253 4.732 238.205 98.641 -1.059
32.658 526.294 95160.23 0.393 -0.160 4.083 238.301 99.290 -1.059
32.689 522.265 95206.25 0.373 -0.042 3.391 238.425 99.980 -1.059
32.719 518.228 95252.37 0.338 0.085 2.656 238.558 100.703 -1.059
32.733 516.451 95272.67 0.274 0.136 2.336 238.614 101.024 -1.060
32.747 514.673 95293.00 0.232 0.181 2.017 238.664 101.341 -1.060
32.760 512.893 95313.34 0.188 0.219 1.703 238.708 101.654 -1.060
32.774 511.112 95333.71 0.123 0.250 1.391 238.745 101.965 -1.060
32.801 507.546 95374.50 0.058 0.286 0.776 238.794 102.577 -1.060
32.828 503.973 95415.36 -0.024 0.286 0.174 238.808 103.178 -1.060
32.855 500.395 95456.31 -0.083 0.254 -0.416 238.788 103.762 -1.061
32.867 498.783 95474.77 -0.139 0.229 -0.670 238.770 104.017 -1.061
32.880 497.170 95493.24 -0.170 0.200 -0.917 238.746 104.264 -1.061
32.892 495.556 95511.72 -0.211 0.167 -1.158 238.718 104.505 -1.061
32.916 492.324 95548.74 -0.244 0.091 -1.619 238.652 104.967 -1.061
32.941 489.087 95585.83 -0.280 0.011 -2.055 238.580 105.403 -1.061
32.965 485.845 95622.98 -0.301 -0.066 -2.465 238.509 105.819 -1.061
32.976 484.406 95639.48 -0.320 -0.099 -2.648 238.479 106.001 -1.062
32.987 482.966 95655.99 -0.330 -0.130 -2.830 238.450 106.184 -1.062
32.998 481.525 95672.51 -0.339 -0.158 -3.013 238.424 106.367 -1.062
33.009 480.083 95689.05 -0.351 -0.184 -3.197 238.400 106.551 -1.062
33.030 477.196 95722.16 -0.360 -0.224 -3.567 238.363 106.920 -1.062
33.052 474.306 95755.32 -0.372 -0.247 -3.939 238.343 107.293 -1.062
33.074 471.412 95788.54 -0.382 -0.250 -4.315 238.341 107.668 -1.062
33.095 468.515 95821.80 -0.401 -0.234 -4.694 238.359 108.047 -1.062
33.139 462.709 95888.48 -0.427 -0.149 -5.461 238.449 108.812 -1.063
33.182 456.889 95955.37 -0.461 -0.014 -6.241 238.590 109.590 -1.063
33.204 453.973 95988.88 -0.496 0.059 -6.636 238.669 109.979 -1.063
33.214 452.514 96005.66 -0.511 0.093 -6.826 238.706 110.170 -1.063
33.225 451.054 96022.45 -0.520 0.125 -7.012 238.742 110.355 -1.063
33.236 449.593 96039.26 -0.529 0.153 -7.193 238.774 110.535 -1.063
33.247 448.132 96056.07 -0.543 0.177 -7.369 238.802 110.710 -1.064
33.269 445.205 96089.75 -0.556 0.213 -7.707 238.847 111.047 -1.064
33.290 442.275 96123.47 -0.572 0.230 -8.026 238.873 111.364 -1.064
33.312 439.342 96157.24 -0.585 0.228 -8.327 238.880 111.664 -1.064
33.334 436.404 96191.07 -0.597 0.208 -8.611 238.869 111.946 -1.064
33.377 430.519 96258.87 -0.597 0.123 -9.127 238.805 112.459 -1.064
33.420 424.620 96326.88 -0.583 0.009 -9.580 238.707 112.908 -1.065
33.459 419.298 96388.26 -0.569 -0.089 -9.936 238.619 113.266 -1.065
33.479 416.632 96419.02 -0.563 -0.131 -10.109 238.581 113.436 -1.065
33.498 413.964 96449.81 -0.556 -0.164 -10.279 238.551 113.604 -1.065
33.518 411.293 96480.65 -0.547 -0.186 -10.447 238.532 113.770 -1.065
33.537 408.619 96511.53 -0.536 -0.196 -10.612 238.524 113.933 -1.066
33.557 405.942 96542.45 -0.523 -0.193 -10.775 238.530 114.094 -1.066
33.576 403.263 96573.41 -0.506 -0.176 -10.936 238.549 114.252 -1.066
33.616 397.894 96635.45 -0.492 -0.108 -11.249 238.622 114.560 -1.066
33.655 392.515 96697.66 -0.482 -0.009 -11.552 238.727 114.858 -1.066
33.694 387.124 96760.04 -0.474 0.095 -11.843 238.839 115.138 -1.067
33.713 384.424 96791.29 -0.461 0.136 -11.973 238.887 115.266 -1.067
33.733 381.721 96822.58 -0.454 0.166 -12.094 238.924 115.384 -1.067
33.752 379.015 96853.91 -0.447 0.184 -12.204 238.949 115.492 -1.067
33.772 376.306 96885.29 -0.440 0.188 -12.304 238.961 115.589 -1.067
33.791 373.595 96916.70 -0.433 0.179 -12.395 238.960 115.677 -1.067
33.811 370.881 96948.16 -0.419 0.158 -12.476 238.947 115.755 -1.067
33.850 365.443 97011.20 -0.400 0.088 -12.611 238.893 115.884 -1.068
33.889 359.995 97074.41 -0.366 0.001 -12.711 238.819 115.979 -1.068
33.928 354.534 97137.79 -0.328 -0.079 -12.778 238.748 116.041 -1.068
33.967 349.063 97201.33 -0.286 -0.141 -12.820 238.697 116.076 -1.068
34.001 344.287 97256.81 -0.236 -0.161 -12.833 238.681 116.084 -1.068
34.031 339.982 97306.85 -0.191 -0.150 -12.827 238.695 116.074 -1.069
34.059 336.101 97351.97 -0.148 -0.117 -12.806 238.732 116.048 -1.069
34.086 332.215 97397.18 -0.111 -0.067 -12.769 238.786 116.007 -1.069
34.114 328.323 97442.47 -0.077 -0.006 -12.715 238.852 115.949 -1.069
34.141 324.426 97487.84 -0.056 0.056 -12.645 238.921 115.876 -1.069
34.169 320.522 97533.30 -0.050 0.105 -12.565 238.980 115.790 -1.069
34.183 318.569 97556.06 -0.046 0.124 -12.520 239.003 115.744 -1.069
34.196 316.613 97578.84 -0.046 0.137 -12.473 239.021 115.695 -1.070
34.210 314.657 97601.64 -0.046 0.145 -12.423 239.033 115.643 -1.070
34.224 312.699 97624.46 -0.046 0.147 -12.371 239.040 115.589 -1.070
34.238 310.739 97647.31 -0.047 0.143 -12.316 239.042 115.532 -1.070
34.265 306.816 97693.05 -0.047 0.121 -12.199 239.030 115.412 -1.070
34.293 302.887 97738.89 -0.045 0.083 -12.073 239.001 115.282 -1.070
34.320 298.953 97784.80 -0.039 0.035 -11.939 238.962 115.144 -1.070
34.348 295.013 97830.80 -0.028 -0.015 -11.795 238.919 114.994 -1.070
34.362 293.040 97853.83 -0.007 -0.039 -11.716 238.898 114.914 -1.070
34.375 291.067 97876.88 0.010 -0.062 -11.632 238.877 114.827 -1.070
34.389 289.092 97899.95 0.028 -0.083 -11.542 238.859 114.736 -1.071
34.403 287.116 97923.05 0.047 -0.101 -11.446 238.843 114.639 -1.071
34.417 285.138 97946.16 0.078 -0.115 -11.345 238.831 114.536 -1.071
34.444 281.178 97992.45 0.110 -0.130 -11.124 238.820 114.312 -1.071
34.472 277.213 98038.82 0.152 -0.126 -10.880 238.829 114.064 -1.071
34.499 273.242 98085.28 0.191 -0.102 -10.609 238.856 113.790 -1.071
34.527 269.265 98131.82 0.225 -0.062 -10.311 238.900 113.489 -1.071
34.554 265.283 98178.44 0.252 -0.012 -9.986 238.955 113.161 -1.071
34.582 261.295 98225.15 0.257 0.041 -9.631 239.014 112.809 -1.071
34.594 259.499 98246.19 0.241 0.062 -9.471 239.038 112.647 -1.072
34.607 257.701 98267.25 0.227 0.081 -9.310 239.060 112.485 -1.072
34.619 255.903 98288.33 0.212 0.097 -9.149 239.080 112.323 -1.072
34.631 254.103 98309.43 0.189 0.108 -8.989 239.095 112.162 -1.072
34.656 250.500 98351.67 0.165 0.121 -8.668 239.116 111.839 -1.072
34.681 246.893 98393.98 0.134 0.117 -8.348 239.121 111.517 -1.072
34.706 243.281 98436.35 0.104 0.100 -8.028 239.111 111.196 -1.072
34.730 239.665 98478.80 0.077 0.071 -7.709 239.090 110.875 -1.072
34.755 236.044 98521.31 0.053 0.035 -7.390 239.061 110.555 -1.072
34.780 232.419 98563.89 0.043 -0.004 -7.072 239.029 110.231 -1.072
34.792 230.605 98585.21 0.043 -0.023 -6.904 239.012 110.064 -1.072
34.805 228.789 98606.54 0.045 -0.041 -6.731 238.996 109.890 -1.072
34.817 226.973 98627.89 0.047 -0.059 -6.551 238.981 109.709 -1.072
34.830 225.155 98649.25 0.049 -0.074 -6.365 238.968 109.523 -1.073
34.842 223.336 98670.64 0.051 -0.087 -6.172 238.957 109.329 -1.073
34.867 219.695 98713.45 0.051 -0.105 -5.765 238.943 108.921 -1.073
34.892 216.050 98756.34 0.047 -0.109 -5.329 238.942 108.485 -1.073
34.916 212.400 98799.29 0.037 -0.099 -4.864 238.955 108.019 -1.073
34.941 208.746 98842.31 0.002 -0.077 -4.368 238.981 107.523 -1.073
34.991 201.424 98928.55 -0.035 -0.004 -3.278 239.060 106.433 -1.073
35.015 197.756 98971.77 -0.099 0.037 -2.682 239.106 105.846 -1.073
35.028 195.921 98993.40 -0.153 0.055 -2.387 239.127 105.551 -1.073
35.040 194.084 99015.06 -0.190 0.071 -2.094 239.146 105.258 -1.073
35.053 192.247 99036.73 -0.226 0.084 -1.804 239.162 104.969 -1.073
35.065 190.408 99058.41 -0.262 0.093 -1.516 239.176 104.682 -1.073
35.077 188.568 99080.12 -0.315 0.099 -1.232 239.185 104.397 -1.074
35.102 184.885 99123.58 -0.366 0.101 -0.670 239.195 103.837 -1.074
35.127 181.197 99167.10 -0.430 0.090 -0.118 239.191 103.287 -1.074
35.152 177.505 99210.70 -0.472 0.068 0.423 239.176 102.752 -1.074
35.163 175.853 99230.20 -0.505 0.055 0.652 239.166 102.520 -1.074
35.174 174.201 99249.73 -0.521 0.041 0.876 239.156 102.296 -1.074
35.185 172.547 99269.26 -0.535 0.027 1.092 239.144 102.079 -1.074
35.196 170.893 99288.81 -0.546 0.012 1.302 239.131 101.868 -1.074
35.207 169.238 99308.37 -0.562 -0.003 1.505 239.119 101.663 -1.074
35.218 167.582 99327.94 -0.579 -0.018 1.710 239.107 101.459 -1.074
35.228 166.171 99344.63 -0.595 -0.030 1.884 239.096 101.283 -1.074
35.236 164.900 99359.65 -0.609 -0.040 2.042 239.087 101.125 -1.074
35.245 163.628 99374.69 -0.630 -0.050 2.200 239.079 100.967 -1.074
35.262 161.084 99404.78 -0.662 -0.068 2.517 239.064 100.649 -1.074
35.295 155.990 99465.05 -0.700 -0.090 3.158 239.048 100.006 -1.074
35.329 150.887 99525.45 -0.752 -0.089 3.807 239.053 99.356 -1.074
35.363 145.776 99585.98 -0.804 -0.065 4.465 239.081 98.697 -1.075
35.394 141.170 99640.56 -0.848 -0.030 5.065 239.121 98.097 -1.075
35.409 138.864 99667.89 -0.893 -0.009 5.368 239.145 97.794 -1.075
35.425 136.556 99695.25 -0.909 0.013 5.673 239.170 97.492 -1.075
35.431 135.517 99707.57 -0.912 0.023 5.806 239.181 97.358 -1.075
35.438 134.478 99719.89 -0.912 0.032 5.937 239.191 97.228 -1.075
35.445 133.438 99732.22 -0.911 0.040 6.065 239.201 97.099 -1.075
35.459 131.358 99756.90 -0.910 0.055 6.314 239.220 96.851 -1.075
35.473 129.276 99781.59 -0.904 0.067 6.553 239.235 96.612 -1.075
35.500 125.109 99831.04 -0.896 0.081 7.001 239.257 96.164 -1.075
35.528 120.937 99880.58 -0.880 0.081 7.412 239.264 95.754 -1.075
35.555 116.759 99930.20 -0.859 0.067 7.788 239.258 95.379 -1.075
35.583 112.575 99979.90 -0.831 0.043 8.128 239.241 95.040 -1.075
35.610 108.387 100029.69 -0.797 0.013 8.437 239.218 94.733 -1.075
35.638 104.193 100079.56 -0.777 -0.017 8.713 239.193 94.453 -1.075
35.651 102.094 100104.53 -0.775 -0.031 8.849 239.182 94.320 -1.075
35.665 99.993 100129.52 -0.773 -0.044 8.981 239.171 94.187 -1.075
35.679 97.892 100154.53 -0.771 -0.055 9.113 239.163 94.057 -1.075
35.693 95.789 100179.56 -0.766 -0.064 9.243 239.156 93.927 -1.076
35.720 91.579 100229.68 -0.759 -0.073 9.499 239.151 93.674 -1.076
35.748 87.363 100279.88 -0.748 -0.069 9.747 239.159 93.427 -1.076
35.775 83.143 100330.17 -0.737 -0.053 9.989 239.179 93.188 -1.076
35.803 78.917 100380.55 -0.722 -0.027 10.223 239.209 92.956 -1.076
35.858 70.449 100481.54 -0.703 0.035 10.669 239.277 92.527 -1.076
35.878 67.266 100519.52 -0.652 0.052 10.811 239.300 92.385 -1.076
35.899 64.081 100557.55 -0.622 0.064 10.941 239.316 92.258 -1.076
35.920 60.892 100595.63 -0.590 0.069 11.055 239.326 92.146 -1.076
35.940 57.701 100633.75 -0.560 0.066 11.156 239.329 92.047 -1.076
35.961 54.507 100671.92 -0.529 0.057 11.243 239.326 91.962 -1.076
35.982 51.309 100710.13 -0.481 0.043 11.317 239.317 91.890 -1.076
36.023 44.905 100786.71 -0.430 0.006 11.428 239.290 91.784 -1.076
36.064 38.490 100863.47 -0.366 -0.030 11.492 239.262 91.723 -1.077
36.105 32.062 100940.42 -0.320 -0.056 11.519 239.245 91.703 -1.077
36.124 29.166 100975.11 -0.267 -0.060 11.517 239.243 91.706 -1.077
36.143 26.267 101009.84 -0.233 -0.060 11.507 239.246 91.719 -1.077
36.161 23.366 101044.61 -0.197 -0.054 11.488 239.254 91.740 -1.077
36.180 20.463 101079.42 -0.144 -0.044 11.460 239.267 91.770 -1.077
36.217 14.649 101149.14 -0.092 -0.013 11.375 239.304 91.859 -1.077
36.254 8.826 101219.02 -0.049 0.023 11.250 239.346 91.985 -1.077
36.273 5.910 101254.02 -0.024 0.038 11.177 239.365 92.060 -1.077
36.291 2.993 101289.05 -0.010 0.049 11.098 239.380 92.141 -1.077
36.310 0.073 101324.13 -0.005 0.055 11.014 239.391 92.227 -1.077
36.310 -0.000 101325.00 0.001 0.055 11.012 239.391 92.229 -1.077
